Fri, Oct 20, 2017	11:26 AM
 Notes: GUA_top chamber_1E-09_60 sec_102017 
 waiting time: 50.000
 time(s)	 temp (K)	 MS1=1.971	 MS2=14.708	 MS3=27.883	 MS4=125.586	 MS5=109.505	 MS6=125.586	 MS7=109.505	 MS8=125.586
0.000	97.700	5326.731	1730.324	23061.237	770.910
1.453	97.700	5399.994	1760.757	23303.268	809.005
2.320	97.700	5374.595	1818.304	23608.751	847.045
3.214	97.700	5418.688	1831.408	23996.716	873.436
4.117	97.700	5538.338	1904.755	24319.038	908.659
5.022	97.700	5547.872	1933.943	24653.841	941.083
5.938	97.700	5577.533	1967.241	24673.582	991.844
6.832	97.700	5536.062	2013.441	24852.364	1028.076
7.725	97.700	5607.420	2082.446	25438.903	1043.012
8.627	97.700	5684.781	2095.980	26623.940	1083.041
9.526	97.900	5669.691	2152.237	31087.556	1147.913
10.442	98.200	5745.523	2225.839	35119.890	1188.237
11.339	98.900	5758.285	2275.745	35258.323	1231.642
12.240	100.000	5797.247	2433.710	37714.280	1282.200
13.107	101.800	5956.151	2550.641	41391.649	1325.011
14.015	104.300	5956.766	2681.858	42324.161	1354.985
14.918	107.300	5968.929	2811.509	40433.142	1378.053
15.826	111.300	5931.894	2899.547	38335.933	1399.923
16.747	115.100	5828.362	2955.056	36822.843	1415.741
17.628	118.900	5959.945	3029.453	36436.674	1451.177
18.495	122.700	5934.443	3091.716	35892.458	1485.601
19.360	126.300	5873.413	3093.379	35464.730	1513.231
20.265	129.800	5883.633	3084.997	35414.370	1541.435
21.130	133.200	5914.094	3079.067	35707.665	1563.996
21.995	136.500	5953.445	3136.845	35902.469	1620.621
22.861	139.800	5965.972	3157.315	35869.010	1648.732
23.762	143.100	5996.270	3154.378	35727.151	1679.357
24.662	146.300	6034.662	3148.734	35684.739	1711.096
25.528	149.500	6078.082	3104.975	35490.152	1737.955
26.444	152.600	6063.440	3105.287	35116.553	1797.932
27.357	156.000	6009.518	3090.807	34957.246	1829.554
28.250	159.000	6023.275	3074.209	34883.451	1829.065
29.117	162.000	6098.213	3053.534	34883.425	1856.188
30.015	164.900	6129.105	3063.498	34850.502	1874.945
30.921	167.700	6040.072	3086.960	34413.247	1906.034
31.783	170.600	6018.949	3079.624	34408.318	1913.580
32.643	173.400	6081.512	3049.082	34578.808	1915.313
33.510	175.800	6135.403	3113.850	34549.590	1953.417
34.411	178.900	6084.707	3101.514	34232.720	1995.578
35.279	181.700	6058.557	3102.517	34102.248	2001.566
36.183	184.400	6012.883	3073.287	34139.337	2010.172
37.049	187.100	6092.895	3075.214	34083.615	2038.926
37.918	189.900	6085.582	3136.572	33825.065	2095.490
38.783	192.200	6020.002	3148.897	33816.022	2102.819
39.683	195.200	6091.995	3148.931	34121.900	2101.536
40.566	197.900	6197.677	3204.922	34202.790	2120.130
41.434	200.300	6210.231	3230.618	33890.339	2167.715
42.300	202.900	6087.661	3215.534	33735.031	2190.930
43.211	205.900	6063.692	3200.104	33876.571	2175.943
44.077	208.600	6159.591	3196.204	33851.353	2189.955
44.944	210.900	6167.601	3231.290	33730.153	2246.606
45.852	213.900	6151.278	3228.460	33566.757	2247.865
46.748	216.600	6117.626	3262.094	33760.313	2255.968
47.654	219.300	6173.274	3262.346	33797.681	2259.578
48.534	221.900	6222.718	3257.798	33890.632	2280.364
49.438	224.600	6198.813	3248.798	33435.011	2305.787
50.302	227.200	6132.818	3240.886	33357.917	2316.602
51.169	229.800	6173.238	3251.915	33562.223	2295.319
52.037	232.500	6225.077	3264.662	33628.681	2289.892
52.935	235.100	6236.149	3270.153	33241.748	2338.766
53.801	237.700	6138.409	3276.050	33300.348	2342.435
54.667	240.400	6219.165	3296.026	33453.250	2315.921
55.573	243.100	6256.945	3274.858	33419.995	2336.656
56.485	245.700	6268.716	3290.617	33204.239	2376.542
57.351	248.300	6203.568	3350.968	33128.343	2390.276
58.220	251.000	6252.776	3333.490	33189.057	2377.542
59.146	253.900	6302.492	3320.574	33190.051	2383.416
60.012	256.200	6352.148	3347.494	33090.656	2391.765
60.878	258.900	6295.698	3401.628	32902.818	2410.043
61.742	261.500	6321.274	3407.714	32870.621	2397.375
62.653	264.200	6437.559	3403.638	32924.458	2403.279
63.553	267.100	6496.475	3423.566	32816.618	2396.424
64.419	269.500	6560.000	3477.352	32545.013	2432.192
65.287	272.100	6593.485	3513.440	32519.744	2447.982
66.154	274.700	6768.314	3521.664	32716.064	2411.850
67.023	277.300	6957.188	3541.943	32668.990	2445.203
67.891	280.000	7013.347	3584.257	32328.252	2431.132
68.757	282.600	7190.651	3588.389	32395.653	2421.357
69.623	285.300	7509.358	3594.571	32529.921	2410.296
70.491	287.900	7713.633	3608.282	32341.383	2440.835
71.388	290.600	7855.353	3674.605	32337.588	2424.039
72.284	293.200	8105.863	3709.149	32232.041	2425.432
73.149	295.900	8312.173	3687.710	32465.003	2411.110
74.016	298.500	8468.337	3679.913	32220.247	2405.784
74.885	301.100	8515.942	3729.265	32078.184	2441.817
75.773	303.800	8707.448	3769.678	31930.696	2416.742
76.642	306.400	8895.123	3781.299	32152.769	2405.108
77.528	309.000	9031.562	3811.167	32083.202	2425.844
78.434	311.700	9104.794	3796.002	31770.688	2436.088
79.352	314.300	9109.728	3849.565	31814.693	2420.556
80.228	317.000	9088.335	3845.083	31728.785	2388.941
81.125	319.600	9245.913	3829.105	31813.432	2387.541
82.020	322.200	9220.665	3796.418	31632.319	2408.186
82.922	325.200	9174.581	3812.466	31377.603	2418.817
83.789	327.800	9059.059	3785.309	31462.250	2442.037
84.659	330.100	9078.039	3786.709	31651.717	2402.573
85.526	332.800	9064.596	3781.402	31600.809	2412.251
86.391	335.400	8869.543	3761.370	31276.781	2424.057
87.258	338.100	8797.828	3706.077	31392.416	2384.938
88.125	340.700	8946.297	3717.557	31628.142	2384.629
89.026	343.300	8943.851	3692.621	31523.257	2380.055
89.892	346.000	8878.748	3678.480	31328.326	2397.829
90.759	348.600	8890.109	3667.150	31169.923	2342.429
91.655	351.300	8921.820	3601.492	31271.088	2329.784
92.520	353.900	9016.937	3588.694	31318.774	2345.878
93.387	356.500	9005.912	3601.800	31131.930	2345.251
94.294	359.200	9072.763	3578.247	30935.203	2332.581
95.198	361.800	9131.743	3527.873	31068.732	2292.280
96.066	364.500	9320.450	3540.668	31020.269	2298.786
96.931	367.100	9405.149	3557.463	30953.772	2313.129
97.819	369.700	9445.477	3556.397	30836.431	2308.662
98.723	372.400	9430.078	3540.074	31066.859	2280.895
99.624	375.300	9528.107	3528.473	31163.351	2260.211
100.491	377.600	9607.080	3509.434	31081.646	2290.401
101.359	380.300	9533.288	3553.054	30975.182	2282.726
102.226	382.900	9625.290	3578.299	31279.291	2258.580
103.092	385.600	9765.159	3571.755	31365.007	2245.422
103.963	388.200	9797.511	3540.400	31263.625	2262.769
104.833	390.800	9786.286	3562.116	31478.603	2261.713
105.732	393.500	9815.956	3575.157	31794.913	2232.620
106.600	396.100	9914.867	3552.682	32044.471	2207.141
107.466	398.700	9853.704	3530.842	32154.297	2230.784
108.332	401.400	9734.332	3493.246	32502.053	2226.878
109.200	404.000	9571.840	3503.554	33192.738	2173.975
110.069	406.300	9563.034	3479.041	33637.457	2165.641
110.976	409.300	9286.270	3443.099	34030.083	2185.307
111.843	411.900	9001.623	3464.786	34578.744	2164.449
112.710	414.200	8787.066	3470.026	35265.786	2142.077
113.578	416.900	8672.242	3432.288	35656.299	2128.664
114.443	419.500	8430.589	3445.832	35759.031	2136.366
115.313	422.100	8176.083	3444.775	36276.882	2144.618
116.226	424.800	8027.338	3452.765	36877.495	2111.509
117.093	427.400	7911.925	3409.685	37174.305	2097.927
117.961	430.000	7813.791	3429.114	37206.872	2105.662
118.829	432.700	7613.322	3422.299	37455.233	2112.395
119.697	435.300	7561.183	3435.738	38010.236	2088.585
120.566	437.900	7628.537	3393.464	38271.843	2077.052
121.479	440.600	7584.629	3390.043	38352.401	2078.587
122.359	443.200	7466.794	3430.621	38498.807	2080.764
123.254	445.900	7468.669	3415.835	38887.548	2061.381
124.142	448.500	7554.872	3414.028	39255.224	2035.205
125.010	451.200	7501.818	3405.375	39472.852	2048.515
125.878	453.800	7451.247	3418.385	39494.377	2037.441
126.745	456.400	7463.328	3411.384	39738.942	2004.672
127.612	459.100	7584.348	3363.500	39984.755	1997.787
128.522	461.700	7617.879	3373.653	40143.375	1990.135
129.391	464.400	7553.170	3395.228	39999.237	1992.196
130.257	467.000	7595.255	3378.610	40030.836	1967.925
131.147	469.600	7718.930	3350.474	40233.842	1948.838
132.013	472.300	7807.651	3369.015	40247.317	1948.513
132.881	474.900	7728.573	3372.725	39687.576	1950.652
133.748	477.500	7752.725	3358.572	39487.524	1911.140
134.644	480.200	7864.091	3351.008	39280.977	1908.303
135.512	482.800	7882.431	3349.620	38609.525	1911.085
136.381	485.500	7886.441	3375.031	37909.860	1913.143
137.245	488.100	7888.583	3377.328	37481.241	1882.590
138.109	490.400	7990.808	3381.192	36913.488	1877.263
138.976	493.100	8037.304	3399.117	36003.036	1878.832
139.844	495.700	7915.932	3407.818	35075.275	1852.015
140.714	498.300	7894.174	3388.211	34349.654	1817.401
141.611	501.000	7955.055	3362.855	33511.073	1799.288
142.477	503.600	7973.907	3359.583	32405.638	1811.651
143.361	506.200	7854.941	3369.044	31472.324	1794.548
144.229	508.900	7875.294	3364.552	30839.972	1761.818
145.098	511.500	7888.690	3319.578	30117.204	1744.403
145.966	514.200	7876.309	3322.491	29529.952	1760.299
146.834	516.800	7849.109	3349.424	29002.485	1741.746
147.703	519.400	7847.913	3345.264	28921.596	1717.725
148.572	521.700	7973.646	3348.841	28725.849	1700.495
149.440	524.400	7947.088	3349.021	28228.975	1720.628
150.307	527.000	7858.305	3337.170	28086.938	1702.571
151.175	529.700	7850.711	3303.535	28082.162	1670.600
152.032	532.300	7878.065	3307.509	28043.073	1676.882
152.930	535.000	7874.535	3327.299	27763.075	1682.138
153.797	537.600	7796.339	3344.339	27730.687	1685.032
154.667	540.200	7839.880	3324.901	27825.153	1639.689
155.534	542.900	7804.083	3297.670	27744.760	1649.178
156.401	545.500	7721.389	3340.541	27548.555	1652.768
157.268	548.100	7624.836	3337.042	27580.154	1626.677
158.134	550.400	7643.291	3330.473	27721.975	1597.084
159.000	553.100	7622.525	3331.287	27704.615	1605.948
159.867	555.700	7435.001	3326.799	27461.056	1606.284
160.735	558.300	7342.998	3332.167	27460.470	1572.409
161.602	561.000	7313.428	3293.086	27532.456	1556.529
162.469	563.600	7243.476	3290.311	27165.443	1576.091
163.335	566.200	7048.274	3288.454	27021.572	1580.827
164.198	568.900	6964.703	3257.744	27161.100	1547.495
165.104	571.500	7038.052	3275.309	27194.367	1530.046
165.994	574.200	6966.695	3252.927	27104.728	1545.155
166.876	576.800	6884.079	3273.989	26908.511	1536.325
167.743	579.500	6839.557	3261.222	26952.413	1509.721
168.614	582.100	6891.281	3247.191	27023.966	1501.783
169.482	584.700	6905.692	3265.572	26969.633	1514.278
170.348	587.000	6809.949	3252.866	26873.040	1507.350
171.214	589.700	6875.927	3281.644	27070.174	1483.483
172.080	592.300	6936.885	3249.217	27089.648	1476.326
172.981	594.900	6951.743	3255.904	26994.342	1489.736
173.881	597.900	6848.897	3276.538	26890.450	1472.729
174.781	600.600	6838.732	3253.885	26836.664	1467.223
175.651	603.200	6853.188	3240.537	26916.815	1422.908
176.518	605.800	6884.079	3212.742	26871.982	1435.168
177.385	608.100	6734.453	3213.375	26687.597	1441.421
178.250	610.800	6737.066	3189.444	26654.915	1415.350
179.118	613.400	6805.207	3178.015	26677.917	1410.818
179.984	616.000	6766.340	3168.060	26543.255	1422.506
180.850	618.700	6701.840	3218.113	26515.617	1423.155
181.717	621.300	6656.928	3214.132	26602.581	1385.933
182.586	624.000	6734.250	3168.814	26714.407	1382.214
183.454	626.600	6778.618	3214.248	26490.042	1397.434
184.319	628.900	6703.315	3204.269	26499.683	1385.392
185.227	631.900	6662.769	3178.733	26483.317	1355.019
186.093	634.500	6745.616	3180.314	26560.614	1349.885
186.961	636.800	6707.949	3148.561	26339.051	1351.522
187.827	639.400	6664.612	3162.978	26452.393	1337.761
188.695	642.100	6716.522	3172.703	26663.729	1323.375
189.562	644.700	6782.733	3152.538	26504.459	1313.529
190.428	647.400	6765.453	3171.581	26374.637	1332.552
191.294	650.000	6726.562	3167.767	26322.965	1311.989
192.161	652.600	6729.783	3107.837	26372.688	1310.251
193.031	655.300	6752.831	3098.871	26262.187	1305.083
193.929	657.900	6696.436	3128.697	26061.944	1301.550
194.794	660.500	6710.507	3148.900	26194.709	1300.784
195.675	663.200	6698.129	3123.215	26324.379	1290.077
196.542	665.800	6764.839	3113.911	26300.689	1273.418
197.411	668.100	6693.964	3138.015	26156.856	1273.522
198.280	670.800	6688.733	3119.518	26057.410	1265.864
199.146	673.400	6732.977	3080.593	26137.471	1255.495
200.012	676.000	6733.236	3102.201	26196.034	1252.757
200.879	678.700	6688.415	3101.712	26071.025	1242.666
201.744	681.300	6648.643	3119.620	26243.171	1227.865
202.649	684.000	6734.821	3103.638	26391.296	1225.683
203.516	686.600	6671.604	3056.760	26180.266	1224.387
204.381	689.200	6544.781	3063.742	26019.086	1222.536
205.279	691.900	6535.487	3064.114	26052.532	1205.661
206.146	694.500	6539.633	3065.811	26163.250	1193.327
207.014	697.200	6511.921	3050.029	26174.573	1210.789
207.880	699.800	6345.175	3063.514	25989.856	1216.080
208.747	702.400	6318.203	3091.077	26112.215	1192.502
209.614	704.700	6322.647	3075.898	26259.996	1186.810
210.481	707.400	6292.095	3102.326	26155.201	1203.072
211.347	710.000	6177.301	3096.251	26055.818	1187.567
212.208	712.600	6094.961	3049.145	26125.117	1166.636
213.069	715.300	6086.020	3048.543	26018.908	1155.361
213.939	717.900	6057.505	3024.270	25891.327	1165.638
214.806	720.500	5965.550	3062.252	25967.491	1162.703
215.674	723.200	5955.384	3023.470	26050.711	1138.210
216.543	725.500	5988.844	3005.630	26012.425	1133.545
217.408	728.100	5925.504	2987.199	25771.732	1141.959
218.275	730.700	5867.377	3014.361	25835.235	1132.543
219.143	733.400	5979.672	3011.472	26121.678	1119.754
220.010	736.000	5967.967	3010.824	26000.007	1134.024
220.878	738.600	5894.413	3022.675	25855.665	1130.523
221.774	741.300	5892.649	3005.384	25791.868	1109.747
222.642	743.900	5898.058	2962.023	25870.248	1100.886
223.508	746.500	5868.978	2972.725	25820.423	1112.753
224.374	749.200	5853.590	2988.299	25821.913	1116.832
225.243	751.800	5834.737	2992.799	25945.495	1094.072
226.110	754.100	5927.598	2996.055	26084.080	1090.445
226.976	756.800	5920.222	2981.308	25929.498	1089.623
227.839	759.400	5810.102	2984.882	25951.366	1088.768
228.703	762.100	5851.831	2976.475	26174.178	1067.220
229.613	764.700	5923.341	2958.646	26184.125	1056.716
230.480	767.300	5865.961	2937.457	25998.491	1070.952
231.346	769.900	5872.147	2981.927	26157.187	1070.878
232.213	772.600	5807.787	2937.980	26154.984	1048.299
233.077	775.200	5865.445	2925.676	26136.911	1047.961
233.944	777.900	5817.126	2930.835	25949.469	1060.261
234.811	780.200	5774.691	2890.872	25915.577	1045.363
235.680	782.800	5793.284	2897.904	26133.956	1031.853
236.545	785.400	5831.080	2901.258	26279.024	1035.750
237.413	788.100	5776.846	2913.353	26141.420	1043.561
