Thu, Oct 19, 2017	3:20 PM
 Notes: GUA_top chamber_8E-9_150 sec_101917 (IR messed up)
 waiting time: 50.000
 time(s)	 temp (K)	 MS1=1.971	 MS2=14.708	 MS3=27.883	 MS4=125.586	 MS5=109.505	 MS6=125.586	 MS7=109.505	 MS8=125.586
0.000	99.200	4773.730	1903.571	14815.273	1047.682
3.334	99.400	4745.200	1912.232	14898.315	1056.979
4.219	99.400	4803.406	1909.557	14765.601	1028.959
5.087	99.400	4753.861	1898.986	14753.247	1038.511
6.454	99.500	4726.860	1871.475	14648.808	1038.002
7.366	99.500	4712.722	1887.141	14728.666	1039.148
8.225	99.500	4773.093	1907.519	14721.151	1049.337
9.099	99.600	4776.914	1920.256	14721.533	1039.785
9.963	99.600	4717.817	1918.218	14718.859	1036.856
10.827	99.600	4726.477	1880.518	14719.877	1025.647
11.693	99.600	4772.711	1884.594	14801.645	1019.025
12.579	99.700	4778.060	1925.987	15583.281	1026.794
13.520	100.100	4792.962	1977.315	17102.612	1030.742
14.386	100.800	4835.501	1996.165	18897.305	1022.463
15.252	101.900	4962.357	2118.307	21552.091	1023.228
16.137	103.700	5047.691	2285.155	25208.089	1015.840
17.002	106.200	5073.928	2569.050	27114.480	1032.016
17.867	109.200	5125.765	2604.330	26057.610	1045.007
18.766	112.800	5141.431	2627.001	25106.324	1013.803
19.632	116.600	5119.397	2646.106	24149.180	1029.723
20.498	120.400	5030.879	2758.951	23947.944	1031.124
21.366	124.100	5034.827	2772.451	23803.895	1048.191
22.233	127.300	5093.032	2790.665	23766.705	1024.883
23.115	130.800	5081.442	2900.071	24084.861	1029.214
23.996	134.200	5040.558	3009.859	24340.482	1038.002
24.858	137.500	5069.979	3014.953	24318.066	1039.275
25.725	140.800	5154.804	3006.929	24226.490	1038.129
26.593	144.100	5159.135	3066.409	24089.319	1041.313
27.485	147.400	5102.203	3078.126	23872.545	1034.054
28.373	150.600	5120.543	3111.496	23695.253	1052.776
29.239	153.700	5178.239	3139.771	23404.353	1062.711
30.104	156.800	5202.566	3337.058	23206.810	1078.504
30.969	159.800	5135.317	3676.485	23199.168	1095.443
31.846	162.700	5187.155	4304.009	23513.249	1137.346
32.712	165.600	5244.214	4879.442	23617.943	1202.939
33.577	168.500	5277.966	5323.307	23745.817	1303.302
34.442	171.000	5250.200	5136.209	23595.781	1422.897
35.310	173.800	5263.064	4684.065	23635.901	1526.954
36.193	176.600	5357.059	4515.052	23379.389	1500.080
37.078	179.400	5304.840	4455.573	22795.296	1526.445
37.944	182.100	5275.418	4521.421	22661.308	1637.634
38.809	184.900	5324.454	4730.680	22820.132	1885.995
39.670	187.600	5334.898	4917.779	23006.593	2406.788
40.537	190.300	5255.677	5216.958	23879.040	3405.580
41.404	193.000	5333.369	5570.904	25381.686	5338.336
42.284	195.700	5496.523	6169.135	28054.430	9188.056
43.150	198.400	5628.728	7513.977	32491.682	16267.229
44.016	201.100	5739.280	9675.352	38911.998	25407.414
44.883	203.400	5984.711	11067.191	42014.852	20979.842
45.749	206.100	5979.617	7554.351	30945.604	6627.775
46.615	208.800	5739.153	5275.928	25861.596	4186.325
47.481	211.400	5522.378	4616.944	24279.092	3447.738
48.346	214.100	5557.021	4287.070	23687.357	3073.541
49.211	216.700	5560.205	4098.188	23137.397	2873.961
50.101	219.400	5537.152	3993.367	22601.956	2762.262
50.967	222.100	5473.088	3901.792	22364.039	2642.540
51.834	224.700	5503.019	3776.338	22151.341	2533.898
52.701	227.000	5491.174	3706.925	21765.808	2417.105
53.564	229.700	5391.575	3564.404	21265.393	2308.081
54.430	232.300	5355.403	3443.280	20923.929	2163.012
55.321	234.900	5449.780	3399.594	20885.338	2023.039
56.184	237.600	5481.749	3296.684	20476.370	1899.368
57.051	240.200	5358.587	3223.067	20103.575	1818.237
57.926	242.900	5368.649	3173.013	19950.737	1760.541
58.790	245.500	5393.867	3076.853	19736.892	1710.486
59.650	248.200	5389.155	3024.761	19617.679	1656.866
60.515	250.500	5361.899	3004.637	19503.178	1625.279
61.384	253.100	5379.093	2992.665	19356.837	1594.839
62.251	255.800	5460.734	2951.144	19315.570	1560.069
63.112	258.400	5438.318	2947.196	19186.168	1526.190
63.972	261.100	5418.067	2949.361	19102.108	1517.402
64.851	263.700	5407.368	2895.486	19075.361	1491.929
65.718	266.300	5490.155	2889.499	19073.196	1498.170
66.583	269.000	5496.905	2934.077	18898.961	1476.263
67.451	271.600	5419.213	2846.832	18741.666	1456.776
68.317	273.900	5494.103	2820.468	18670.469	1441.620
69.182	276.500	5548.488	2824.289	18645.633	1429.138
70.045	279.200	5533.332	2824.289	18479.550	1418.694
70.911	281.800	5533.841	2852.309	18505.150	1398.698
71.777	284.500	5668.338	2818.812	18351.166	1390.165
72.654	287.100	5704.255	2793.849	18219.981	1391.438
73.519	289.800	5705.146	2824.798	18234.883	1375.900
74.384	292.400	5806.146	2850.399	18246.600	1373.098
75.249	294.700	5924.213	2819.322	18168.398	1367.494
76.115	297.400	6061.767	2872.050	18091.216	1358.069
76.983	300.000	6073.612	2875.235	18019.509	1336.926
77.867	302.600	6193.207	2877.400	18011.103	1355.139
78.734	305.300	6470.734	2892.301	17931.628	1362.272
79.601	307.900	6654.648	2957.639	17945.638	1353.102
80.465	310.500	6774.626	2992.028	17903.226	1339.983
81.331	313.200	7041.837	3000.689	17892.272	1338.327
82.199	315.800	7271.984	3036.223	17905.263	1327.501
83.088	318.400	7550.785	3078.254	17873.168	1324.572
83.968	321.100	7749.346	3154.672	17853.299	1318.331
84.829	323.700	8068.776	3166.899	17930.609	1301.264
85.714	326.300	8408.840	3189.698	17930.609	1302.793
86.580	328.600	8571.739	3247.521	17884.376	1283.178
87.447	331.300	8547.667	3214.916	17894.310	1295.151
88.314	333.900	8819.717	3304.198	18046.765	1286.490
89.183	336.600	8767.625	3269.810	18007.410	1279.612
90.048	339.200	8600.651	3287.386	18015.816	1275.537
90.934	341.800	8535.313	3260.640	18047.147	1277.702
91.803	344.500	8573.522	3217.208	18150.950	1276.301
92.670	347.100	8412.024	3157.856	18107.900	1272.735
93.538	349.800	8275.616	3101.179	18124.458	1272.098
94.426	352.400	8201.745	3059.149	18133.373	1260.762
95.309	355.100	8330.128	3020.430	18296.018	1280.249
96.175	357.700	8394.575	2945.922	18292.451	1274.645
97.040	360.300	8366.427	2879.820	18191.197	1263.564
97.907	362.700	8491.754	2852.309	18226.477	1259.998
98.777	365.300	8768.007	2793.339	18251.058	1250.701
99.644	367.900	8923.902	2721.888	18180.880	1245.479
100.511	370.600	8944.280	2710.170	18199.093	1254.521
101.377	373.200	9157.615	2705.967	18370.016	1249.427
102.244	375.900	9442.275	2677.820	18393.324	1260.635
103.113	378.500	9566.838	2651.837	18371.672	1261.399
103.981	381.100	9515.000	2636.426	18512.283	1256.941
104.865	383.800	9597.405	2615.284	18655.440	1251.210
105.733	386.400	9834.940	2608.661	18879.729	1246.625
106.600	388.700	9901.424	2583.443	18951.563	1243.823
107.484	391.300	9861.050	2573.381	19262.332	1232.487
108.352	394.000	9957.210	2597.580	19691.296	1232.233
109.218	396.600	10272.437	2578.730	20131.722	1244.205
110.083	399.200	10267.342	2557.970	20442.237	1231.596
110.950	401.900	10238.558	2569.178	21034.991	1239.365
111.817	404.500	10328.095	2550.710	21701.489	1239.875
112.699	407.200	10358.535	2601.783	22497.645	1232.360
113.565	409.800	10083.428	2592.231	22919.985	1227.902
114.433	412.400	9881.046	2544.724	23493.635	1222.680
115.300	415.100	9831.246	2535.936	24122.306	1211.854
116.166	417.300	9540.600	2518.741	24462.369	1208.670
117.032	420.000	9202.830	2525.364	24955.525	1210.835
117.898	422.600	8974.338	2537.591	25477.719	1224.209
118.764	425.200	8927.340	2554.658	26063.851	1208.033
119.631	427.900	8760.493	2535.299	26241.269	1203.066
120.497	430.500	8467.300	2552.620	26495.871	1211.472
121.364	433.200	8368.465	2584.207	27087.734	1218.223
122.232	435.800	8433.930	2533.516	27339.533	1215.930
123.100	438.100	8348.724	2540.139	27400.031	1206.505
123.964	440.800	8143.030	2494.924	27532.491	1197.590
124.831	443.400	8180.348	2493.905	27879.304	1202.429
125.723	446.000	8187.480	2493.778	28032.396	1191.221
126.591	448.700	8089.664	2490.594	28076.846	1208.416
127.458	451.300	7984.079	2498.108	28203.319	1196.061
128.327	454.000	8039.992	2502.693	28545.675	1213.001
129.196	456.600	8083.169	2518.741	28589.234	1204.212
130.061	459.300	7926.383	2526.001	28584.266	1207.906
130.929	461.900	7966.375	2521.671	28749.840	1190.712
131.796	464.200	8038.209	2548.672	28841.288	1202.047
132.689	467.200	8020.633	2548.672	28888.031	1195.806
133.556	469.800	7935.171	2574.145	28847.656	1218.223
134.422	472.100	7907.406	2567.777	28705.900	1225.864
135.293	474.800	7981.914	2547.908	28771.110	1203.321
136.161	477.400	8064.828	2579.749	28700.932	1221.279
137.028	480.000	7925.364	2583.570	28294.130	1213.637
137.893	482.700	7927.911	2570.706	28136.453	1210.326
138.760	485.300	8137.808	2572.744	27916.749	1205.231
139.625	488.000	8172.451	2591.212	27387.168	1233.888
140.519	490.600	8023.435	2566.758	26865.228	1216.949
141.387	493.200	8056.677	2593.759	26448.109	1234.398
142.255	495.900	8242.119	2603.566	25909.357	1232.869
143.121	498.200	8231.548	2625.473	25266.676	1214.274
143.986	500.800	8139.082	2634.516	24527.325	1210.963
144.853	503.400	8101.636	2663.555	24093.522	1238.983
145.718	506.100	8351.016	2688.773	23420.273	1240.639
146.586	508.700	8258.932	2710.043	22723.589	1240.002
147.453	511.400	8222.123	2730.166	22114.023	1264.711
148.320	514.000	8300.452	2744.177	21697.796	1277.702
149.185	516.600	8394.575	2791.683	21403.966	1311.199
150.052	519.000	8281.985	2830.657	20823.184	1312.982
150.922	521.600	8301.089	2884.532	20659.903	1337.181
151.788	524.300	8416.609	2854.092	20555.082	1341.002
152.654	526.900	8435.204	2877.909	20321.750	1372.079
153.518	529.500	8304.019	2888.481	20183.305	1371.187
154.383	532.100	8283.640	2944.776	20300.735	1401.882
155.251	534.700	8450.360	2962.225	20224.189	1428.629
156.131	537.400	8474.305	2984.768	20102.046	1422.643
156.994	540.000	8315.481	2996.613	19991.748	1462.126
157.862	542.400	8331.784	2999.542	20010.344	1468.876
158.729	545.000	8404.637	3016.482	19981.814	1468.112
159.599	547.600	8287.971	3005.783	19843.496	1503.519
160.467	550.300	8173.725	3034.185	19875.210	1494.221
161.332	552.900	8139.464	3028.709	19977.993	1496.769
162.200	555.500	8150.927	3045.776	20001.938	1501.609
163.065	558.200	8008.915	3047.049	19730.269	1505.684
163.930	560.800	7935.681	3036.860	19741.350	1502.245
164.799	563.500	8045.469	3079.782	19979.012	1513.071
165.668	565.800	8044.705	3075.069	19937.109	1525.044
166.535	568.400	7801.311	3078.890	19812.037	1538.290
167.403	571.000	7839.520	3118.501	19855.596	1530.775
168.270	573.700	7899.509	3072.267	19844.770	1522.878
169.138	576.300	7827.548	3032.402	19820.698	1517.911
170.005	578.900	7792.141	3100.033	19906.669	1511.543
170.872	581.600	7818.123	3085.131	19879.413	1498.170
171.741	584.200	7941.667	3071.758	19847.445	1491.165
172.609	586.900	7936.827	3075.579	19749.374	1475.626
173.493	589.500	7783.480	3064.371	19749.374	1488.617
174.359	591.800	7840.539	3076.725	19790.003	1481.994
175.226	594.500	7941.157	3061.187	19716.641	1467.093
176.094	597.100	8000.764	3056.984	19661.365	1477.919
176.964	599.700	7919.378	3064.753	19717.660	1475.117
177.832	602.400	8025.982	3071.121	19789.748	1467.220
178.697	605.000	8097.816	3023.742	19729.123	1467.220
179.565	607.700	7999.108	3019.284	19641.751	1474.353
180.430	610.300	8024.708	3013.552	19756.124	1469.131
181.314	612.900	8171.942	3040.172	19802.230	1468.112
182.182	615.500	8244.030	3034.822	19863.875	1472.315
183.050	617.800	8139.718	3027.053	19760.455	1474.225
183.915	620.500	8170.541	3053.672	19806.688	1465.819
184.782	623.100	8316.628	3020.175	19851.648	1467.475
185.652	625.800	8339.044	3025.270	19822.481	1469.513
186.518	628.400	8260.333	3052.017	19881.960	1478.301
187.385	631.100	8256.766	3067.937	20007.542	1472.060
188.251	633.700	8400.816	3017.628	19968.568	1481.867
189.117	636.300	8399.415	2991.646	19781.597	1479.702
189.983	638.600	8291.155	2987.443	19823.245	1480.976
190.851	641.300	8353.563	3007.566	20049.317	1478.301
191.718	643.900	8520.411	3020.048	20111.089	1481.103
192.613	646.500	8510.859	3023.742	20030.213	1475.754
193.511	649.500	8408.458	3012.406	20019.514	1483.523
194.378	651.800	8400.179	2975.216	20138.727	1484.287
195.267	654.800	8611.477	3008.840	20273.224	1477.282
196.136	657.100	8590.207	3022.850	20229.411	1487.726
197.001	659.700	8590.716	3062.206	20310.032	1504.283
197.869	662.400	8601.669	3071.503	20534.831	1503.264
198.734	665.000	8698.594	3089.207	20561.322	1473.079
199.603	667.600	8716.425	3100.542	20537.251	1493.457
200.468	670.300	8575.178	3069.083	20564.252	1486.325
201.335	672.900	8590.334	3071.503	20668.818	1489.891
202.203	675.600	8688.150	3071.758	20752.497	1519.822
203.070	677.900	8593.136	3068.319	20519.292	1496.259
203.935	680.500	8535.567	3091.117	20671.365	1513.453
204.800	683.100	8605.872	3078.254	20871.710	1516.765
205.661	685.800	8634.020	3098.377	20898.202	1524.534
206.548	688.400	8425.270	3068.829	20818.344	1508.232
207.414	691.100	8359.422	3075.834	20945.581	1513.199
208.281	693.700	8414.953	3058.639	20905.079	1508.486
209.147	696.300	8312.297	3061.187	20913.485	1526.190
210.010	699.000	8132.713	3118.246	20993.470	1519.567
210.869	701.300	7983.315	3077.235	21064.030	1520.076
211.734	703.900	8054.512	3093.410	21086.192	1532.431
212.598	706.500	7939.501	3094.302	20982.517	1545.295
213.466	709.200	7733.426	3060.295	20934.755	1532.940
214.331	711.800	7687.320	3050.488	21128.604	1532.558
215.200	714.500	7630.006	3094.302	21197.253	1541.219
216.066	717.100	7442.653	3113.279	21065.813	1535.233
216.929	719.400	7407.755	3123.213	21225.274	1543.002
217.794	722.000	7409.665	3128.053	21450.963	1548.988
218.661	724.700	7305.608	3129.709	21361.044	1546.059
219.530	727.300	7159.394	3134.421	21320.670	1551.408
220.396	729.900	7087.178	3094.684	21425.108	1539.054
221.291	732.600	7129.463	3141.044	21552.728	1534.723
222.158	735.200	7062.470	3146.394	21546.105	1572.805
223.028	737.800	6926.444	3135.440	21545.468	1556.248
223.894	740.500	6919.567	3141.299	21708.749	1558.923
224.758	743.100	6998.533	3128.435	21812.169	1577.390
225.624	745.400	7009.995	3144.483	21775.616	1579.683
226.489	748.000	6873.079	3168.555	21861.841	1572.678
227.353	750.700	6905.811	3154.418	21884.512	1563.635
228.220	753.300	6971.531	3108.184	21996.848	1565.291
229.079	756.000	6925.043	3168.937	22067.026	1576.626
229.945	758.600	6849.644	3202.179	22170.700	1571.914
230.810	761.200	6936.379	3215.935	22441.350	1575.735
231.676	763.800	6941.601	3215.807	22467.842	1579.556
232.577	766.500	6935.869	3209.821	22460.582	1574.206
233.446	769.100	6872.696	3173.140	22410.018	1568.475
234.313	771.400	6913.326	3214.661	22810.961	1586.433
235.181	774.100	6960.705	3206.510	22879.993	1593.056
236.048	776.700	6819.713	3189.443	22725.882	1584.395
236.912	779.400	6791.693	3200.141	22885.724	1577.645
237.780	782.000	6918.930	3151.743	22951.572	1581.848
238.647	784.600	6870.404	3139.643	22871.332	1561.597
239.515	787.300	6816.529	3171.739	22943.803	1581.593
240.382	789.900	6801.882	3157.474	23168.601	1568.220
241.247	792.200	6924.661	3178.872	23367.799	1570.767
242.115	794.800	6910.396	3216.571	23335.831	1600.825
242.982	797.500	6828.119	3165.498	23481.026	1606.812
243.846	800.100	6899.570	3254.017	23778.295	1614.836
244.709	802.800	6973.442	3259.621	24022.070	1594.203
245.581	805.400	6927.718	3248.030	23984.625	1616.491
246.448	808.000	6874.989	3242.426	24069.195	1615.855
247.314	810.600	6985.414	3255.927	24351.817	1626.680
248.180	813.300	7027.699	3258.856	24520.320	1630.756
249.047	815.600	6944.530	3259.493	24547.576	1626.935
249.914	818.200	6894.985	3238.096	24577.380	1625.662
250.783	820.900	7004.646	3243.827	24853.633	758.123
251.649	823.500	7016.873	3254.908	24977.814	768.057
252.514	826.100	6902.500	3242.426	25126.066	771.712
253.381	828.800	6894.731	3259.111	25526.627	764.682
254.247	831.400	7028.463	3269.937	25799.187	769.305
255.114	834.000	6994.075	3244.210	25708.504	774.438
255.979	836.300	6918.802	3276.815	26015.325	779.927
256.845	839.000	6943.893	3276.433	26378.441	769.496
257.711	841.600	7062.979	3297.957	26713.155	778.017
258.576	844.200	6979.555	3300.377	26773.653	787.085
259.452	846.900	6940.836	3312.986	27076.144	775.419
260.317	849.500	7036.487	3312.859	27535.165	780.335
261.183	852.200	7054.318	3276.433	27728.887	779.558
262.051	854.800	6931.157	3277.579	27895.352	791.135
262.919	857.400	6980.447	3300.632	28297.696	674.900
263.786	859.700	7073.168	3264.460	28633.047	679.022
264.653	862.300	7015.345	3258.729	28875.676	680.511
265.511	865.000	6908.104	3295.155	29094.616	686.058
266.373	867.600	6946.441	3248.030	29456.968	669.173
267.236	870.300	7016.236	3252.106	29733.476	679.642
268.102	872.900	7058.139	3281.655	30071.374	684.232
268.974	875.500	6971.531	3296.556	30361.128	682.434
269.841	877.800	6998.660	3268.791	30826.646	671.562
270.707	880.500	7069.984	3272.357	31108.249	675.500
271.574	883.100	6929.628	3271.211	31209.249	685.398
272.441	885.700	6964.908	3306.745	31643.944	691.732
273.306	888.400	7097.495	3281.400	32001.710	674.697
274.172	891.000	7059.285	3269.046	32231.094	681.129
275.042	893.600	6989.999	3285.348	32331.585	685.677
275.910	896.300	6986.560	3289.169	32792.007	673.507
276.796	898.900	7075.461	3279.999	33160.091	682.014
277.660	901.500	7059.795	3258.984	33102.522	692.268
278.529	903.900	6951.790	3261.531	33371.261	689.671
