Wed, Oct 04, 2017	12:22 PM
 Notes: GUA_3.65E9_30s_100417
 waiting time: 50.000
 time(s)	 temp (K)	 MS1=1.994	 MS2=17.798	 MS3=27.907	 MS4=78.871	 MS5=95.042	 MS6=109.505	 MS7=111.496	 MS8=125.586
0.000	97.800	2530.272	1788.183	8823.721	226.223	101.266	100.858	102.030	118.090
1.057	97.800	2332.322	1746.560	8838.801	222.937	102.323	101.380	101.686	117.594
2.051	97.800	2343.467	1755.654	8894.548	225.293	102.476	100.731	102.068	117.352
3.040	97.800	2366.010	1757.259	8911.322	225.510	101.317	101.278	102.463	118.625
4.086	97.800	2311.536	1751.973	8904.572	228.452	101.839	102.425	102.590	118.294
5.086	97.800	2318.541	1755.144	8900.509	230.910	102.246	101.724	102.488	117.505
6.040	97.800	2349.669	1765.703	8902.025	224.898	101.648	101.380	102.132	117.823
7.024	97.800	2361.145	1776.045	8831.439	226.630	101.775	101.151	102.730	117.186
8.040	97.800	2329.660	1773.179	8857.039	226.656	101.813	101.648	103.163	117.632
9.005	97.800	2308.505	1762.735	8866.859	224.083	101.953	101.520	103.291	117.696
10.011	97.900	2294.711	1774.695	8885.798	226.427	101.546	101.138	102.743	116.218
10.967	98.000	2295.654	1764.582	9069.916	230.464	101.915	101.813	102.119	118.460
11.923	98.300	2332.016	1774.975	10052.941	243.494	102.412	101.113	102.386	118.422
12.905	99.000	2326.935	1787.635	11006.876	254.765	102.221	101.852	101.966	119.899
13.864	100.300	2297.730	1781.611	10521.273	245.901	102.030	101.011	102.960	118.180
14.833	102.300	2279.657	1795.685	10914.447	260.318	101.686	101.762	103.011	118.689
15.793	105.300	2311.957	1824.826	11106.691	260.764	101.610	102.501	102.437	118.332
16.778	108.900	2307.932	1812.446	10830.208	251.810	102.208	101.546	102.921	119.530
17.748	112.500	2347.835	1809.389	10482.427	246.347	102.756	100.922	102.246	119.160
18.711	116.800	2329.011	1816.267	10344.899	251.849	101.813	101.278	102.870	120.740
19.664	121.000	2315.828	1831.321	10184.063	248.091	101.915	100.909	102.043	120.268
20.616	125.100	2332.590	1885.922	10117.362	246.474	101.431	101.444	102.985	118.918
21.575	128.700	2359.897	2030.341	10148.146	248.091	102.144	100.782	102.654	119.364
22.534	132.600	2370.888	2437.882	10139.931	249.034	102.068	102.144	102.896	120.179
23.492	136.400	2400.908	3231.847	10095.022	255.071	102.450	102.081	102.603	120.880
24.478	140.100	2418.293	4751.636	10107.428	247.072	102.183	101.215	102.335	120.128
25.428	143.400	2486.026	6671.898	10096.105	248.983	102.654	101.151	102.858	122.039
26.390	147.100	2513.931	8584.836	10063.258	242.869	102.501	101.737	102.565	121.962
27.349	150.700	2502.239	9739.344	9943.573	243.010	101.915	101.215	103.087	122.306
28.306	153.800	2514.823	9743.866	9777.528	239.061	101.418	101.610	102.476	122.115
29.265	157.200	2508.034	9090.307	9670.427	237.431	102.335	101.559	103.775	123.414
30.222	160.600	2461.508	8296.789	9620.246	245.837	102.705	102.565	102.450	125.057
31.187	163.900	2468.551	7809.594	9682.501	241.825	104.654	103.520	103.660	129.668
32.145	166.800	2475.862	7481.235	9695.696	246.538	104.488	103.253	104.042	133.540
33.107	170.000	2501.335	7300.238	9711.095	249.849	105.953	105.621	105.685	140.086
34.094	173.100	2474.474	7108.325	9666.530	251.390	106.793	107.354	107.048	149.830
35.057	176.300	2473.111	6812.432	9619.876	253.746	107.354	107.137	109.659	171.915
36.016	179.400	2437.754	6481.679	9640.790	249.492	106.895	106.793	115.620	217.104
36.999	182.200	2460.502	6120.117	9704.217	248.894	108.207	106.717	127.974	312.869
37.958	185.300	2459.355	5728.101	9862.939	257.045	108.194	109.990	152.861	509.380
38.917	188.300	2464.068	5411.422	10220.973	269.272	112.525	116.091	201.043	892.390
39.871	191.400	2492.305	5279.511	10728.648	292.987	118.804	128.089	286.925	1602.040
40.853	194.100	2531.660	5244.435	11343.182	331.999	130.305	150.556	435.674	2794.171
41.809	197.100	2583.332	5231.991	12062.638	382.805	144.404	176.462	613.016	4017.724
42.768	200.100	2661.496	5182.115	12691.462	415.830	151.282	185.963	672.903	4253.972
43.751	203.100	2629.782	4746.962	12552.278	386.040	135.501	152.492	403.642	2021.566
44.708	206.100	2438.493	3950.959	11129.922	297.063	113.977	115.963	189.669	734.012
45.679	208.800	2326.489	3485.786	10116.649	268.559	109.837	112.053	171.787	618.200
46.640	211.800	2345.211	3310.927	10032.767	262.700	108.971	110.984	167.928	588.906
47.636	214.800	2343.581	3221.123	10033.442	265.617	108.513	111.213	168.094	602.152
48.600	217.700	2402.831	3155.441	10016.770	263.846	109.353	110.398	167.673	609.934
49.554	220.700	2406.856	3111.398	10084.999	269.412	108.462	111.722	170.641	625.154
50.513	223.400	2450.223	3071.418	10101.518	272.507	109.799	110.894	173.469	636.362
51.474	226.300	2466.361	3028.331	10048.611	265.528	109.226	111.366	175.901	623.638
52.448	229.300	2502.774	2981.015	10041.287	265.044	111.149	110.742	168.667	597.338
53.407	232.300	2454.401	2915.027	9948.973	263.604	108.143	109.315	159.624	506.565
54.401	235.300	2457.967	2823.096	9745.802	255.453	107.494	107.303	142.812	408.367
55.357	237.900	2417.949	2786.249	9649.094	249.645	106.488	106.271	135.909	346.519
56.326	240.900	2438.913	2752.638	9607.662	246.576	106.628	106.615	130.190	309.163
57.470	244.500	2489.464	2718.912	9545.113	255.810	106.322	105.481	123.987	278.519
58.429	247.100	2504.022	2690.522	9580.368	247.289	104.513	105.341	122.930	262.203
59.397	250.100	2496.444	2653.828	9509.056	244.576	105.316	105.469	120.905	248.856
60.365	253.100	2489.719	2621.529	9607.688	249.072	105.494	104.654	119.988	243.634
61.339	256.100	2480.180	2595.241	9524.646	247.786	105.838	104.220	118.689	233.941
62.294	258.700	2516.784	2590.337	9554.360	241.150	105.188	104.488	117.938	231.636
63.303	262.000	2511.970	2586.058	9610.375	246.639	104.997	104.997	118.307	227.726
64.259	264.600	2522.452	2551.173	9578.687	244.831	104.755	105.469	117.072	223.739
65.213	267.600	2554.548	2552.574	9589.131	246.194	105.278	104.297	116.358	224.695
66.171	270.600	2567.195	2525.700	9567.262	246.792	105.685	104.781	117.021	220.568
67.144	273.500	2594.145	2517.625	9571.873	242.003	105.265	105.074	115.913	218.950
68.123	276.200	2690.509	2521.471	9503.962	246.741	105.583	104.259	116.537	219.447
69.079	279.200	2724.567	2491.999	9503.962	239.927	104.386	104.080	116.053	215.308
70.053	282.100	2764.062	2482.752	9559.047	244.512	105.558	103.928	116.116	214.811
71.012	285.100	2784.734	2465.736	9569.414	240.819	104.921	104.704	116.167	212.519
71.989	288.100	2843.907	2463.406	9459.410	242.551	105.723	105.201	114.512	210.735
72.947	290.700	2889.313	2446.008	9506.356	241.086	105.494	104.679	116.409	210.735
73.905	293.700	2963.350	2442.047	9502.497	243.468	105.914	104.233	115.403	211.385
74.860	296.700	2982.110	2437.984	9474.885	251.084	106.004	103.749	115.238	211.270
75.831	299.300	3049.996	2408.970	9555.736	241.710	105.303	103.571	115.480	210.315
76.790	302.300	3101.464	2404.181	9522.876	245.391	104.845	103.482	115.276	212.671
77.771	305.200	3197.929	2420.790	9547.037	244.321	104.717	103.953	114.894	208.519
78.739	308.200	3275.558	2413.912	9528.874	242.717	104.959	103.775	114.588	209.793
79.697	311.100	3353.429	2377.014	9524.098	243.506	104.832	104.501	115.772	210.213
80.662	313.800	3474.450	2399.265	9495.097	240.768	105.010	103.189	114.817	206.876
81.638	316.700	3615.392	2400.322	9457.678	237.507	105.723	103.571	114.257	213.041
82.595	319.700	3743.024	2380.784	9444.483	243.303	105.227	102.909	114.957	211.181
83.552	322.700	3867.688	2380.568	9473.242	240.819	105.596	103.902	114.855	207.781
84.508	325.300	3939.114	2378.403	9472.426	245.098	105.010	104.501	113.786	204.074
86.513	331.600	4040.993	2354.738	9459.665	240.055	104.896	103.826	113.009	198.407
87.473	334.200	4096.257	2355.770	9453.245	240.055	106.144	103.813	113.429	194.445
88.434	337.200	4033.288	2357.298	9460.378	241.532	105.316	102.947	112.448	193.962
89.394	340.200	3935.230	2367.628	9497.734	249.136	105.392	103.011	113.123	191.007
90.354	343.100	3798.771	2364.520	9622.054	241.710	105.087	104.170	112.690	186.740
91.350	346.100	3651.525	2344.651	9610.337	248.410	104.997	104.424	111.671	188.510
92.308	348.800	3552.831	2338.958	9601.077	248.932	106.016	103.303	111.366	183.263
93.264	351.700	3468.031	2337.468	9592.353	248.715	105.991	103.163	111.518	182.906
94.385	355.000	3405.343	2339.569	9651.119	242.080	106.284	103.380	112.270	180.792
95.381	358.000	3374.762	2345.874	9597.728	246.958	106.589	104.335	112.690	179.238
96.337	360.900	3372.202	2334.029	9629.696	247.455	106.169	103.635	111.671	179.098
97.335	363.900	3420.499	2353.006	9582.215	245.786	107.736	103.978	111.276	178.729
98.339	366.900	3476.769	2350.472	9584.265	243.353	106.386	102.730	111.149	179.060
99.299	369.900	3539.534	2346.753	9560.028	244.411	107.405	102.705	111.289	176.309
100.285	372.800	3618.538	2344.740	9539.981	250.690	107.264	103.303	111.340	177.442
101.298	375.800	3742.311	2359.005	9628.422	257.122	107.188	103.354	111.085	177.901
102.252	378.800	3813.138	2356.458	9666.403	245.812	107.112	103.711	110.984	178.436
103.211	381.400	3879.750	2377.638	9721.781	244.309	107.596	103.393	111.251	176.245
104.166	384.400	4008.987	2376.403	9787.106	261.032	107.850	102.590	110.818	176.423
105.110	387.300	4071.892	2370.570	9837.695	247.480	106.131	103.418	110.678	175.392
106.077	390.000	4184.864	2367.895	9959.519	257.593	109.430	102.514	109.379	173.239
111.365	406.100	4229.951	2383.446	11637.228	273.552	107.405	103.928	110.614	172.972
112.321	408.800	4142.732	2377.244	12008.546	284.390	106.195	102.641	110.398	172.055
113.392	412.100	4100.765	2407.123	12438.644	284.454	106.857	103.061	110.296	173.507
114.463	415.400	4041.732	2411.950	12776.924	286.224	107.366	103.456	109.977	173.889
115.422	418.000	3906.114	2418.370	12958.953	292.134	106.589	102.845	109.990	170.870
116.375	421.000	3706.305	2407.429	13189.508	294.503	108.844	104.004	109.723	172.934
117.617	424.600	3607.164	2419.860	13209.390	306.386	106.182	102.921	110.270	171.163
118.576	427.600	3511.272	2419.923	13335.290	295.891	106.640	103.596	109.455	171.609
119.531	430.500	3442.138	2444.619	13412.485	296.528	106.258	102.705	111.022	169.839
120.482	433.100	3366.726	2433.679	13494.724	292.351	105.583	103.431	110.156	173.290
121.436	436.100	3341.151	2464.539	13540.206	299.636	105.010	103.138	110.283	171.061
122.424	439.100	3324.262	2450.644	13545.415	297.738	106.589	103.775	109.328	171.673
123.381	442.100	3192.389	2472.767	13643.308	297.343	106.806	103.023	109.710	168.845
124.339	444.700	3177.742	2469.570	13654.605	306.106	105.863	103.342	109.595	170.246
125.295	447.700	3153.377	2465.444	13717.421	303.890	106.640	102.947	109.672	173.876
126.253	450.600	3131.305	2486.166	13662.425	299.458	104.959	103.112	110.640	169.775
127.212	453.600	3095.961	2485.338	13731.661	297.598	105.456	102.807	110.219	171.061
128.248	456.600	3093.796	2499.717	13794.515	305.979	106.182	103.100	109.213	169.304
129.245	459.500	3106.354	2501.793	13709.830	301.967	106.169	103.418	109.977	170.004
130.197	462.500	3077.595	2504.595	13739.876	308.539	105.774	102.909	109.761	170.667
131.154	465.200	3074.284	2509.537	13739.443	304.157	106.857	102.870	109.188	170.170
132.110	468.100	3107.985	2538.793	13670.386	300.464	105.303	103.112	109.633	169.164
133.065	471.100	3098.050	2526.235	13582.555	301.508	106.220	103.265	110.385	170.450
134.020	473.700	3152.970	2529.852	13571.143	299.254	106.144	104.233	109.990	169.036
134.982	476.700	3113.945	2543.849	13432.991	298.069	106.449	104.424	109.723	170.004
135.939	479.700	3141.240	2542.333	13326.934	290.860	105.965	103.291	109.302	167.597
136.897	482.600	3127.064	2541.340	13232.532	292.210	106.615	103.418	109.812	168.132
137.853	485.300	3066.719	2546.447	13098.417	286.505	105.647	102.998	109.825	169.100
138.811	488.200	3086.562	2549.822	12902.747	285.638	105.571	102.819	109.799	169.304
139.766	491.200	3078.283	2550.969	12701.995	302.540	106.768	102.985	109.035	169.253
140.726	493.800	3089.517	2558.420	12447.788	283.868	105.723	102.807	109.009	167.890
141.684	496.800	3088.995	2577.664	12198.829	273.819	106.144	103.176	109.188	170.488
142.646	499.800	3121.090	2575.996	11831.624	278.608	105.354	102.807	107.812	167.457
143.609	502.700	3154.842	2570.927	11539.208	268.979	106.258	103.686	109.137	166.769
144.568	505.400	3167.286	2568.749	11252.434	270.202	105.647	102.807	109.022	165.929
145.524	508.300	3144.207	2584.478	11032.132	261.949	105.405	102.718	109.837	167.686
146.482	511.300	3164.980	2597.992	10764.476	265.668	105.456	102.870	108.576	165.088
147.442	514.300	3132.604	2572.175	10551.064	254.956	105.430	103.431	109.888	166.986
148.401	517.000	3108.787	2589.331	10353.254	256.943	105.953	103.100	109.048	167.877
149.358	519.900	3085.543	2586.491	10233.697	258.828	105.813	103.291	109.162	168.068
150.311	522.900	3114.913	2597.228	10126.086	246.665	105.991	103.418	108.869	167.686
151.282	525.500	3098.343	2607.442	10061.513	245.149	106.246	104.564	109.532	169.469
152.240	528.500	3081.442	2600.424	9942.096	254.778	105.634	103.112	108.589	168.412
153.188	531.500	3094.408	2599.647	9817.240	257.223	105.927	102.577	109.557	166.094
154.129	534.100	3114.264	2603.685	9794.811	251.314	105.074	102.425	109.952	170.717
155.082	537.100	3098.636	2617.708	9709.197	244.385	105.150	102.807	109.124	167.521
156.039	540.000	3088.192	2627.528	9684.144	240.450	105.380	103.469	109.544	168.107
156.996	542.700	3076.386	2612.919	9623.048	244.003	106.500	102.998	109.532	166.731
157.953	545.600	3090.115	2612.702	9597.919	236.578	105.736	103.584	110.296	168.820
158.916	548.600	3044.850	2626.088	9572.395	240.513	105.571	102.985	109.226	166.349
159.971	551.600	3060.567	2614.842	9519.042	245.289	104.934	102.323	109.022	166.744
160.933	554.500	2985.944	2605.010	9527.970	242.984	105.953	103.354	109.519	168.336
161.889	557.500	2927.573	2634.660	9550.921	239.775	106.004	103.329	110.576	167.826
162.845	560.400	2907.284	2622.013	9573.044	248.181	105.800	103.698	109.391	168.782
163.800	563.100	2888.778	2645.741	9519.628	241.812	105.443	103.482	110.818	169.164
164.760	566.100	2871.596	2628.661	9520.124	241.609	106.793	103.303	109.366	168.922
165.716	569.000	2858.312	2647.728	9483.558	242.258	106.500	103.163	109.149	169.176
166.675	571.700	2838.430	2624.445	9487.086	239.685	106.105	102.909	109.761	169.278
167.631	574.600	2872.857	2644.085	9382.787	247.849	105.329	102.921	109.850	168.871
168.592	577.600	2882.078	2651.498	9388.035	248.384	105.469	103.176	109.684	169.431
169.540	580.200	2873.328	2632.329	9392.187	248.333	106.004	103.087	109.290	170.450
170.488	583.200	2881.085	2636.023	9346.590	244.691	106.118	103.151	109.926	169.992
171.429	586.200	2874.806	2648.746	9379.883	242.627	106.831	102.425	110.512	169.278
172.412	589.100	2884.791	2654.924	9423.518	246.920	106.029	102.998	110.028	172.335
173.361	591.800	2847.970	2642.251	9424.601	248.626	105.698	102.488	108.755	169.355
174.302	594.800	2832.737	2648.059	9370.802	249.785	105.711	102.093	109.111	170.208
175.241	597.400	2826.051	2646.161	9372.904	245.493	105.443	103.278	109.570	170.845
176.198	600.400	2837.908	2673.009	9421.761	239.329	105.774	102.348	109.774	174.717
177.155	603.300	2831.629	2654.478	9360.983	242.844	105.341	103.482	111.557	170.233
178.113	606.000	2895.108	2667.367	9356.627	238.450	105.889	103.507	108.666	173.583
179.072	608.900	2877.875	2675.506	9310.826	244.996	106.437	103.405	109.646	170.896
180.026	611.900	2905.068	2640.366	9358.970	240.195	106.704	103.800	109.977	170.832
180.987	614.500	2897.680	2656.770	9276.005	238.208	106.475	103.291	110.181	171.469
181.946	617.500	2965.871	2658.070	9348.857	238.182	106.093	102.794	109.277	172.169
182.905	620.500	2860.910	2659.190	9314.405	240.895	105.278	102.616	110.067	171.927
183.861	623.400	2863.254	2647.320	9389.028	239.851	106.080	103.023	110.780	173.965
184.820	626.100	2862.935	2667.673	9327.447	251.670	105.329	103.138	109.786	172.399
185.778	629.000	2929.649	2660.566	9331.561	240.309	106.781	103.826	110.538	172.182
186.732	632.000	2861.241	2668.692	9360.257	247.264	106.882	103.507	109.251	173.940
187.742	635.000	2884.396	2666.437	9400.083	242.309	105.787	102.603	109.391	173.379
188.703	637.900	2912.276	2662.400	9439.350	240.004	105.621	103.023	109.532	172.399
189.661	640.600	2898.432	2671.201	9403.841	241.660	106.424	104.029	110.194	174.857
190.622	643.500	2948.792	2681.072	9378.139	236.845	105.252	103.838	110.309	173.507
191.578	646.500	2949.352	2678.397	9392.238	241.634	106.437	103.405	110.168	174.182
192.534	649.100	2971.093	2669.010	9379.043	242.067	106.169	103.214	109.633	172.106
193.490	652.100	2961.324	2642.977	9394.556	245.098	106.156	102.870	109.761	175.468
194.448	655.100	2976.239	2655.038	9342.426	248.015	106.144	103.520	110.168	175.252
195.405	658.100	2947.735	2690.165	9412.845	240.539	106.551	103.240	109.825	173.761
196.360	660.700	2958.013	2662.464	9410.056	245.188	105.494	102.119	110.270	175.379
197.314	663.700	2917.740	2651.192	9425.340	244.793	106.220	102.934	111.391	175.061
198.267	666.600	2945.544	2674.105	9462.339	244.831	106.016	103.520	110.372	173.774
199.240	669.300	2920.033	2688.446	9513.743	242.653	106.437	103.125	110.933	174.615
200.200	672.200	2922.262	2682.103	9455.627	244.283	106.691	103.635	110.092	175.736
201.155	675.200	2934.451	2689.962	9452.978	240.857	107.506	103.023	109.926	177.009
202.118	678.200	2967.540	2698.533	9408.961	244.411	107.188	102.335	110.041	176.742
203.096	680.800	2949.097	2687.491	9424.690	242.029	106.488	103.100	110.525	176.258
204.053	683.800	2952.167	2684.345	9423.378	239.634	106.322	102.870	110.767	177.582
205.012	686.700	2959.159	2681.326	9373.579	240.704	106.207	103.189	111.799	176.576
205.973	689.700	2927.395	2677.556	9376.266	237.520	105.953	103.520	110.729	178.691
208.948	698.600	2805.570	2672.385	9372.611	251.250	106.220	102.960	111.238	178.028
209.903	701.300	2799.240	2648.161	9392.582	240.883	106.513	102.730	109.977	178.423
210.853	704.200	2720.720	2682.409	9351.112	245.964	105.303	103.049	109.952	178.398
211.807	707.200	2702.533	2671.545	9397.116	240.692	106.488	103.813	110.410	178.716
212.762	709.800	2672.844	2685.529	9399.166	243.672	106.246	103.507	109.710	177.926
213.715	712.800	2654.694	2672.271	9370.344	246.296	106.488	103.749	111.162	180.206
214.666	715.700	2585.688	2700.546	9339.165	247.187	106.628	102.921	110.449	177.353
215.614	718.400	2622.611	2670.055	9321.525	243.315	106.640	103.253	111.850	179.366
216.568	721.300	2566.902	2698.355	9320.926	241.609	107.150	102.590	111.875	179.174
217.524	724.300	2537.150	2673.863	9351.698	240.271	106.895	104.348	111.722	178.563
218.483	726.900	2505.219	2682.880	9291.416	244.079	106.462	103.061	111.964	180.550
219.441	729.900	2509.028	2692.547	9321.092	236.565	105.545	103.291	110.589	179.187
220.401	732.800	2453.777	2700.393	9308.585	237.469	106.972	103.609	110.143	179.888
221.355	735.500	2409.760	2681.734	9312.890	247.684	107.188	103.125	110.449	179.735
222.307	738.500	2419.834	2687.758	9333.013	245.417	106.564	103.011	110.245	181.263
223.260	741.400	2397.877	2691.414	9376.929	239.927	106.844	103.138	110.767	182.359
224.218	744.100	2371.640	2709.436	9355.226	238.004	106.016	103.469	111.302	181.327
225.167	747.000	2396.285	2702.813	9310.330	251.645	107.226	102.870	112.155	181.862
226.103	750.000	2408.359	2689.452	9245.272	245.315	106.755	103.609	111.034	182.168
227.042	752.600	2404.449	2706.239	9361.645	247.149	106.870	103.838	111.468	181.824
227.998	755.600	2403.532	2711.066	9381.870	242.844	106.742	103.940	111.085	181.887
228.958	758.600	2394.489	2716.785	9369.312	242.742	106.717	102.705	108.487	152.466
229.908	761.200	1690.571	2086.470	7376.223	220.823	105.787	103.456	109.659	169.902
230.860	764.200	2102.378	2409.212	8094.419	225.497	105.927	103.087	108.551	175.303
231.815	767.100	2209.021	2519.803	8531.025	230.592	106.564	102.603	109.532	178.066
232.775	769.700	2264.959	2606.423	8841.157	232.247	107.430	103.151	110.614	182.231
233.765	772.700	2273.492	2637.144	9113.233	237.278	105.953	102.909	111.226	182.269
234.723	775.700	2289.604	2672.462	9240.215	241.074	107.481	103.316	111.034	182.550
235.677	778.700	2320.592	2699.552	9327.791	236.960	106.666	102.781	111.251	182.944
236.633	781.300	2368.213	2700.418	9300.217	241.927	106.882	103.864	110.563	182.575
237.587	784.300	2390.298	2705.182	9355.417	249.773	107.226	103.775	110.640	186.141
238.543	787.200	2374.416	2723.446	9441.120	245.340	107.417	103.418	111.264	185.581
239.495	789.900	2363.832	2732.323	9450.622	239.074	106.551	103.864	110.347	183.505
240.449	792.800	2377.498	2729.852	9457.372	240.806	106.526	103.596	111.811	183.938
241.400	795.800	2344.536	2717.905	9515.807	237.877	106.806	103.431	112.257	184.944
242.349	798.400	2321.751	2735.838	9589.092	244.869	107.137	104.068	112.474	186.791
243.302	801.400	2323.865	2745.785	9574.254	244.780	106.666	103.125	111.391	185.938
244.261	804.400	2343.772	2755.172	9674.388	240.411	107.379	103.444	111.327	185.568
245.214	807.000	2331.240	2739.914	9661.575	240.844	106.806	103.545	111.964	187.313
246.167	810.000	2339.225	2739.990	9683.597	254.103	107.252	103.049	112.410	187.326
247.130	812.900	2342.804	2735.494	9652.698	244.691	107.290	103.902	112.486	186.893
248.221	816.200	2313.447	2752.943	9754.208	248.677	107.086	103.393	112.015	188.536
249.195	819.200	2332.539	2754.599	9789.182	249.722	106.653	103.495	111.786	189.516
250.161	821.800	2362.482	2762.024	9862.544	243.430	106.972	103.749	112.092	187.148
251.139	824.800	2337.773	2759.706	9805.650	253.683	106.589	102.718	111.799	187.759
