Wed, Oct 04, 2017	12:36 PM
 Notes: GUA_0L_100417
 waiting time: 50.000
 time(s)	 temp (K)	 MS1=1.994	 MS2=17.798	 MS3=26.922	 MS4=27.907	 MS5=28.936	 MS6=30.937	 MS7=78.871	 MS8=125.586
0.000	98.200	2194.781	2246.338	393.529	7229.156	611.399	173.481	113.913	142.188
1.015	98.200	2028.609	2207.008	391.071	7228.595	599.758	174.398	113.149	142.837
1.999	98.200	2031.525	2199.723	388.715	7244.554	602.929	174.666	112.767	142.188
2.994	98.200	2047.637	2216.484	385.505	7268.626	606.686	174.628	112.881	143.245
3.957	98.200	2054.960	2217.248	387.199	7267.785	609.858	176.334	112.194	143.309
4.954	98.200	2061.469	2234.723	387.785	7266.690	608.482	173.761	112.728	143.079
5.909	98.200	2053.700	2215.529	387.556	7272.218	607.680	174.921	112.792	142.277
6.884	98.200	2074.562	2237.461	389.288	7274.714	608.609	175.073	113.047	143.360
7.839	98.200	2051.076	2228.049	389.007	7258.182	614.965	176.640	113.620	143.895
8.798	98.200	2050.312	2254.821	389.058	7274.625	611.309	176.869	113.518	142.086
9.788	98.200	2066.283	2256.413	388.600	7302.849	612.710	176.640	112.448	144.493
10.745	98.200	2051.942	2248.988	393.223	7244.618	600.101	175.583	113.378	142.914
11.720	98.200	2023.043	2240.110	391.453	7202.868	602.725	173.698	113.187	143.602
12.688	98.300	2010.994	2258.909	389.351	7309.293	604.164	176.245	112.372	142.786
13.643	98.500	2005.607	2263.163	394.854	7739.454	614.990	174.347	113.454	143.079
14.598	99.000	2028.660	2282.917	395.376	8714.187	632.414	172.131	113.085	145.194
15.582	100.100	2044.695	2284.573	392.141	9152.156	645.965	174.054	113.047	143.589
16.538	102.000	2051.025	2310.492	395.936	9289.213	648.767	175.226	113.429	144.850
17.510	104.600	2080.586	2315.777	395.949	9468.147	652.308	175.264	112.155	145.346
18.466	107.700	2108.364	2296.800	394.688	9157.951	646.067	175.137	112.372	145.754
19.456	111.600	2098.150	2316.198	399.910	8758.256	641.317	175.137	113.938	144.226
20.418	115.800	2082.777	2323.203	396.815	8510.697	633.140	174.602	113.391	145.627
21.372	120.100	2103.028	2330.781	399.044	8363.107	635.292	178.334	112.894	145.690
22.328	123.700	2067.187	2346.944	400.305	8297.935	632.032	177.531	111.875	145.155
23.285	127.800	2099.742	2352.025	394.000	8282.384	629.586	178.449	112.932	145.639
24.255	131.700	2095.513	2348.052	404.266	8247.014	627.638	178.015	113.276	146.187
25.216	135.500	2074.613	2370.748	405.425	8174.684	632.070	176.920	113.391	145.219
26.170	138.900	2064.908	2355.770	405.654	8153.134	629.739	175.239	113.926	144.875
27.125	142.600	2057.954	2381.701	409.959	8061.559	632.172	177.226	114.270	145.525
28.082	146.300	2048.096	2391.878	413.283	7982.338	622.428	176.691	113.034	144.837
29.043	149.500	2056.744	2407.378	409.742	7872.970	624.606	176.232	112.728	145.958
29.999	153.000	2068.181	2422.827	405.030	7870.984	624.046	177.098	114.193	146.276
30.958	156.500	2088.597	2467.570	402.508	7818.331	623.969	175.825	112.945	146.658
31.952	159.800	2101.487	2476.091	409.106	7753.388	628.351	175.774	113.009	147.270
32.937	163.200	2084.051	2489.923	406.889	7768.124	621.524	175.608	113.021	146.926
33.908	166.400	2068.678	2511.626	408.940	7710.530	619.181	175.990	114.410	144.162
34.893	169.600	2086.203	2530.247	404.852	7717.840	623.014	176.755	112.028	146.340
35.884	172.800	2077.160	2538.181	408.647	7687.311	621.053	174.602	113.340	147.435
36.843	175.600	2099.245	2498.125	407.832	7664.220	617.881	177.735	112.754	145.601
37.806	178.800	2079.593	2517.319	403.591	7664.615	621.855	174.309	114.180	146.798
38.769	181.900	2085.783	2514.785	412.863	7669.850	619.423	178.257	113.442	147.219
39.727	185.000	2056.858	2541.735	417.130	7663.520	622.810	177.786	113.569	146.913
40.683	187.700	2045.383	2538.118	418.594	7607.963	620.467	176.513	114.193	146.633
41.636	190.700	2065.328	2546.231	419.257	7695.437	625.702	176.806	114.613	147.868
42.604	193.800	2058.425	2562.992	416.404	7632.710	627.969	179.047	113.505	147.206
43.598	196.800	2054.094	2561.425	419.855	7650.350	626.517	177.213	113.340	146.977
44.557	199.800	2056.744	2543.187	417.512	7649.089	621.091	176.232	113.722	147.066
45.515	202.500	2068.971	2566.418	422.848	7645.969	618.569	179.073	113.251	148.518
46.477	205.500	2093.501	2581.600	423.358	7670.550	621.384	178.487	113.569	146.824
47.458	208.500	2077.912	2585.892	420.008	7647.752	631.471	178.767	114.091	148.123
48.414	211.500	2100.926	2597.355	415.423	7608.804	629.217	180.334	113.887	148.238
49.374	214.100	2089.145	2589.229	419.104	7618.891	627.090	179.391	114.129	148.938
50.388	217.500	2085.770	2614.243	424.377	7578.224	629.663	177.748	114.168	148.913
51.340	220.100	2102.085	2616.727	428.541	7608.816	630.860	179.977	115.645	149.027
52.299	223.100	2078.077	2611.021	423.065	7575.918	630.682	180.334	115.543	148.964
53.255	226.100	2084.433	2612.015	429.904	7603.875	628.771	183.874	114.435	148.645
54.210	228.700	2064.449	2642.225	430.465	7616.777	627.994	182.015	114.792	148.110
55.177	231.700	2078.064	2643.588	429.917	7601.264	625.001	182.792	113.671	146.926
56.145	234.700	2073.823	2646.390	422.568	7637.932	638.718	180.397	114.397	148.632
57.117	237.600	2071.964	2651.498	431.853	7646.860	631.573	180.410	114.257	149.397
58.078	240.300	2064.360	2659.381	431.687	7660.845	633.165	178.449	114.270	149.830
59.039	243.200	2080.790	2663.890	437.482	7651.726	628.644	182.639	115.059	147.754
59.995	246.200	2091.183	2661.457	433.267	7637.983	628.020	182.257	116.065	148.441
60.955	249.200	2112.809	2680.740	436.183	7649.166	634.248	180.193	115.454	148.887
61.912	251.800	2102.977	2679.951	431.484	7684.942	635.636	185.721	114.703	148.785
62.885	254.800	2115.433	2711.703	431.789	7639.779	636.184	181.594	115.046	150.530
63.839	257.800	2113.344	2700.380	435.687	7635.843	632.299	184.473	115.951	150.810
64.796	260.800	2103.741	2703.959	437.075	7642.950	644.552	184.562	115.365	149.524
65.770	263.400	2099.118	2715.868	440.972	7649.777	632.325	182.257	115.059	150.849
66.729	266.300	2084.942	2722.198	448.003	7586.324	641.367	183.632	114.371	151.485
67.685	269.300	2096.010	2742.130	448.576	7601.926	638.387	183.352	115.136	151.205
68.645	272.200	2069.200	2756.242	444.245	7613.070	639.011	184.307	116.460	149.193
69.599	274.900	2081.733	2745.047	449.977	7631.029	633.968	182.741	115.569	151.358
70.584	277.900	2087.184	2744.334	450.767	7597.545	639.393	183.785	115.849	149.588
71.543	280.900	2100.366	2774.493	447.506	7613.924	642.450	185.084	115.301	151.740
72.498	283.800	2102.506	2757.847	446.258	7626.520	640.884	182.906	115.110	150.721
73.456	286.500	2139.403	2767.297	445.570	7653.305	643.635	185.199	115.339	150.008
74.413	289.500	2131.430	2784.237	446.143	7632.519	646.793	187.351	115.148	151.880
75.368	292.400	2132.462	2782.097	447.786	7613.937	641.877	184.931	116.422	150.467
76.330	295.100	2136.079	2781.613	445.150	7610.370	642.565	186.829	115.352	152.734
77.287	298.000	2148.472	2800.259	450.333	7635.143	640.043	185.696	116.307	151.600
78.247	301.000	2138.295	2794.477	452.435	7629.004	640.756	185.135	114.728	153.141
79.201	303.600	2105.244	2811.977	452.384	7600.232	644.946	188.103	115.734	153.167
80.161	306.600	2139.645	2811.047	453.594	7650.949	643.966	189.720	115.823	150.225
81.123	309.600	2125.011	2827.846	450.945	7624.495	643.189	186.358	115.378	151.880
82.085	312.500	2140.422	2809.582	454.116	7639.078	641.125	183.492	115.887	151.294
83.037	315.200	2139.301	2834.711	448.334	7614.140	645.723	186.345	116.588	152.492
83.997	318.100	2196.144	2828.521	450.499	7626.062	646.309	184.269	115.594	152.976
84.960	321.100	2205.200	2841.844	451.263	7642.657	650.092	186.460	115.492	153.511
85.927	324.100	2212.994	2837.475	454.014	7637.983	643.902	183.327	115.008	153.523
86.882	326.700	2221.923	2868.004	453.352	7633.016	651.595	184.715	116.333	152.492
87.842	329.700	2234.366	2852.670	453.110	7648.491	644.768	187.440	115.734	153.358
88.801	332.700	2241.791	2862.400	455.186	7634.939	651.442	189.453	115.836	153.396
89.757	335.300	2262.628	2857.242	457.453	7601.684	655.339	188.256	116.320	153.995
90.713	338.200	2229.857	2881.441	457.135	7639.142	649.391	189.415	115.734	154.211
91.669	341.200	2265.570	2863.687	458.001	7641.638	650.270	187.670	114.690	155.676
92.621	343.800	2271.442	2876.156	459.580	7581.662	646.589	185.670	116.791	152.402
93.574	346.800	2297.068	2915.346	462.815	7631.920	652.830	185.186	115.849	153.905
94.531	349.800	2316.975	2886.587	460.319	7617.757	644.411	189.198	116.689	153.956
95.491	352.800	2358.024	2891.121	463.248	7599.086	657.377	186.765	116.104	155.752
96.449	355.400	2379.511	2904.278	457.695	7620.700	654.690	187.428	116.549	153.460
97.410	358.400	2409.352	2923.128	458.740	7660.068	653.200	188.892	115.798	154.313
98.368	361.300	2431.259	2915.677	458.357	7652.885	652.448	187.937	116.244	154.670
99.329	364.000	2458.502	2938.170	459.389	7601.799	650.003	189.198	115.874	155.587
100.285	366.900	2467.252	2929.560	459.618	7628.915	648.831	188.969	116.549	156.045
101.241	369.900	2473.608	2963.133	461.210	7624.648	646.653	189.657	117.352	154.695
102.196	372.900	2428.177	2959.656	465.019	7639.435	652.945	190.332	118.205	154.950
103.151	375.500	2464.361	2956.166	463.032	7647.752	657.021	190.472	117.759	155.727
104.111	378.500	2476.257	2967.896	465.401	7655.788	657.963	190.370	116.830	156.249
105.063	381.500	2477.849	2988.351	464.522	7647.815	660.880	190.357	116.995	154.759
106.037	384.100	2475.607	2978.722	471.985	7648.172	655.212	188.587	115.772	155.943
106.992	387.100	2532.908	2991.395	461.542	7698.685	665.401	187.848	117.084	157.484
107.950	390.000	2512.186	2988.351	463.121	7640.046	665.847	188.230	115.976	155.829
108.907	393.000	2503.882	3006.093	464.509	7709.422	661.287	190.548	117.263	156.542
109.861	395.600	2515.218	3017.823	462.624	7726.680	663.656	190.281	117.925	157.994
110.833	398.600	2540.627	3028.598	464.178	7767.729	667.936	190.561	116.664	156.746
111.783	401.600	2498.762	3023.911	464.000	7756.521	663.160	190.841	116.409	157.026
112.742	404.200	2511.817	3021.581	465.031	7877.810	665.720	192.178	118.001	156.453
113.700	407.200	2455.522	3030.483	465.579	7854.706	664.420	190.484	117.237	155.994
114.654	410.100	2455.433	3049.193	476.622	7963.361	669.349	190.115	118.001	157.892
115.611	412.800	2434.061	3053.460	471.845	8095.489	671.324	192.510	117.237	158.452
116.569	415.700	2382.567	3044.111	475.119	8145.429	674.864	193.350	117.161	159.586
117.524	418.700	2388.388	3064.923	473.921	8252.759	672.928	191.070	117.925	157.586
118.485	421.700	2400.513	3067.878	468.165	8342.742	681.258	192.650	117.186	156.962
119.443	424.300	2399.685	3068.935	473.055	8443.856	689.333	191.720	117.925	157.663
120.403	427.300	2399.698	3086.753	466.891	8472.029	689.906	193.758	118.256	158.363
121.407	430.200	2367.551	3101.960	472.622	8531.419	693.027	192.268	117.556	159.637
122.380	433.200	2377.027	3093.491	471.310	8585.562	706.043	196.432	116.791	158.541
123.338	436.100	2368.417	3097.795	471.769	8618.104	698.860	196.509	119.593	157.268
124.296	438.800	2353.159	3102.521	475.794	8656.326	690.212	193.962	116.549	159.191
125.255	441.800	2342.155	3113.436	475.717	8635.311	701.624	195.095	117.798	160.847
126.215	444.800	2330.348	3124.517	475.679	8721.766	694.262	194.216	118.001	160.032
127.199	447.700	2317.242	3132.770	480.099	8708.978	697.230	192.599	116.231	159.127
128.159	450.700	2310.759	3132.031	478.825	8654.492	701.840	190.166	117.237	159.611
129.121	453.300	2316.898	3138.845	482.111	8602.094	700.808	193.325	118.129	160.452
130.080	456.300	2309.167	3150.257	481.181	8607.380	705.394	196.114	119.186	158.631
131.043	459.300	2311.587	3168.763	487.957	8572.494	705.101	192.815	117.084	159.777
132.004	461.900	2346.893	3157.084	483.372	8466.693	700.465	192.586	118.129	158.592
132.983	464.900	2354.611	3150.346	477.691	8455.650	699.242	193.732	117.581	158.771
133.944	467.900	2349.198	3177.182	481.105	8394.897	670.330	193.669	117.989	158.771
134.902	470.800	2333.659	3163.859	480.150	8380.938	696.797	191.784	118.931	160.630
135.863	473.800	2342.817	3196.477	480.302	8267.164	704.056	196.127	118.231	159.815
136.825	476.400	2344.231	3224.103	483.869	8217.873	697.917	196.611	117.339	160.541
137.797	479.400	2341.505	3214.742	484.302	8184.619	690.135	193.083	119.568	162.197
138.757	482.400	2318.019	3211.850	483.143	8095.069	689.537	195.261	117.403	159.853
139.716	485.300	2307.129	3197.267	488.823	8050.962	699.407	195.859	119.020	160.528
140.673	488.000	2304.913	3236.495	485.219	8028.992	693.778	194.496	117.938	160.452
141.633	490.900	2304.264	3233.604	486.518	7989.114	682.544	194.955	117.657	161.878
142.591	493.900	2287.477	3232.292	491.039	7896.902	685.359	192.535	118.473	160.961
143.548	496.500	2294.075	3249.754	496.796	7858.795	687.295	194.242	118.969	161.267
144.508	499.500	2305.474	3267.356	489.231	7828.635	692.619	197.986	118.040	159.815
145.470	502.500	2334.564	3270.247	486.938	7820.114	691.753	195.146	118.243	160.719
146.428	505.400	2343.900	3275.380	486.123	7779.561	692.415	197.158	118.536	160.898
147.386	508.100	2366.953	3288.970	485.703	7751.618	692.008	197.961	117.848	161.216
148.345	511.000	2339.658	3308.520	488.747	7759.170	686.365	197.859	117.237	162.681
149.300	514.000	2359.260	3288.740	491.510	7701.105	686.900	198.763	118.702	161.738
150.257	516.700	2309.473	3301.782	497.191	7717.535	693.600	198.941	118.740	162.350
151.218	519.600	2316.593	3317.627	497.611	7710.415	689.919	199.578	120.498	162.413
152.175	522.600	2301.793	3340.145	495.255	7689.120	691.575	201.323	119.848	162.834
153.147	525.600	2323.037	3335.980	497.573	7652.515	695.396	199.362	118.511	161.114
154.105	528.200	2314.822	3351.391	498.579	7681.185	688.696	197.184	119.683	162.184
155.065	531.200	2314.542	3359.122	496.197	7657.928	698.363	196.267	119.937	160.872
156.024	534.100	2314.631	3359.810	501.534	7662.717	693.281	197.770	119.708	162.961
156.983	537.100	2364.749	3389.638	494.669	7650.184	696.898	199.260	119.173	161.012
157.937	539.700	2365.577	3387.269	499.649	7687.948	696.886	195.808	118.702	163.661
158.897	542.700	2372.238	3385.117	493.663	7709.307	699.420	199.999	119.364	164.222
159.853	545.700	2359.986	3401.700	494.529	7656.604	694.912	201.603	120.472	163.865
160.812	548.300	2391.534	3386.136	494.631	7684.254	700.707	202.100	119.772	162.897
161.768	551.300	2389.674	3423.505	499.343	7679.300	700.898	200.725	121.147	163.521
162.730	554.200	2353.796	3439.413	501.534	7681.223	699.344	202.189	120.803	162.655
163.681	556.900	2336.270	3417.378	500.884	7674.817	693.829	200.304	119.364	163.330
164.639	559.800	2343.390	3424.129	505.979	7677.542	699.344	199.948	121.173	162.974
165.602	562.800	2341.836	3453.142	505.355	7689.082	696.453	199.260	121.224	163.789
166.564	565.800	2336.423	3447.347	501.776	7709.485	698.121	202.915	122.052	162.362
167.522	568.400	2325.890	3460.848	505.113	7691.565	697.981	203.183	121.236	164.706
168.483	571.400	2364.813	3458.861	498.668	7707.970	697.191	200.317	120.523	165.330
169.439	574.300	2358.852	3468.783	504.400	7674.435	703.547	200.279	120.243	163.929
170.400	577.300	2368.723	3479.723	500.515	7732.538	700.006	201.947	120.854	163.903
171.359	580.000	2327.915	3487.951	504.845	7667.430	704.286	203.514	121.860	166.527
172.315	582.900	2350.548	3489.925	507.316	7700.379	708.399	203.565	121.376	163.254
173.277	585.900	2331.316	3492.727	504.603	7674.091	703.712	203.578	119.683	166.030
174.237	588.500	2343.416	3501.948	511.876	7664.067	705.648	206.940	121.147	164.566
175.196	591.500	2317.726	3501.375	510.157	7737.620	711.201	204.533	120.867	163.407
176.154	594.500	2312.695	3503.617	511.417	7682.051	704.757	205.348	120.510	164.808
177.110	597.500	2300.736	3536.362	514.958	7652.961	705.164	206.609	121.224	166.413
178.066	600.100	2299.589	3515.895	514.016	7693.488	703.254	206.316	121.045	164.719
179.020	603.000	2305.499	3544.667	512.067	7663.341	705.941	204.482	119.797	165.712
179.974	606.000	2319.751	3534.847	506.705	7678.994	706.323	203.832	121.084	167.291
180.935	608.600	2332.233	3553.799	508.272	7687.222	706.540	207.220	121.746	165.534
181.890	611.600	2343.263	3555.047	506.845	7693.921	714.003	210.035	122.064	167.240
182.848	614.600	2338.117	3573.680	507.011	7701.219	718.716	209.500	120.892	167.381
183.795	617.200	2353.159	3564.090	509.240	7670.512	708.909	207.742	120.651	168.603
184.760	620.200	2352.127	3573.718	510.004	7703.754	718.945	211.831	121.657	168.832
185.717	623.200	2302.239	3555.174	518.333	7714.656	711.469	210.506	121.287	165.763
186.674	625.800	2309.040	3580.074	518.486	7723.508	715.112	210.073	121.364	166.247
187.634	628.800	2295.565	3564.306	523.644	7662.195	717.926	209.347	121.759	166.438
188.579	631.700	2297.985	3589.002	520.677	7695.577	709.749	208.532	120.205	165.890
189.536	634.700	2308.046	3619.748	512.908	7696.201	712.768	213.143	120.931	166.323
190.493	637.300	2325.814	3601.165	519.569	7683.605	717.264	213.410	121.911	168.272
191.455	640.300	2338.601	3604.579	512.577	7729.775	724.842	210.302	121.542	168.017
192.408	643.300	2329.406	3629.517	518.091	7738.983	718.130	209.755	122.001	164.222
193.367	645.900	2343.084	3636.076	513.443	7729.418	717.799	212.595	121.771	169.762
194.324	648.900	2334.436	3633.898	519.212	7688.432	721.531	214.467	121.415	168.005
195.287	651.800	2345.479	3617.290	519.136	7729.927	719.862	217.065	122.319	168.769
196.241	654.500	2285.872	3638.904	524.447	7739.925	712.475	215.754	122.128	168.476
197.200	657.400	2291.324	3644.584	525.606	7717.930	720.028	213.461	122.013	166.081
198.157	660.400	2300.952	3654.633	518.423	7761.068	713.736	211.372	120.587	169.979
199.114	663.400	2298.902	3638.076	522.269	7766.634	714.755	210.659	121.911	167.775
200.073	666.000	2301.334	3668.146	523.759	7783.917	718.932	212.187	122.230	167.763
201.033	669.000	2303.971	3661.918	523.644	7772.238	721.250	211.869	122.663	166.986
201.989	671.900	2321.674	3669.930	520.142	7794.323	723.721	213.512	121.173	171.456
202.950	674.600	2340.856	3660.377	519.161	7790.464	724.677	215.371	122.357	169.788
203.907	677.600	2331.431	3682.793	515.646	7845.982	727.237	216.530	121.453	171.112
204.867	680.600	2344.460	3655.614	527.172	7812.090	728.421	218.097	120.001	169.635
205.823	683.500	2313.931	3679.889	525.186	7779.587	729.427	216.798	121.173	171.227
206.781	686.100	2321.700	3675.190	522.091	7769.041	726.523	216.288	122.179	171.023
207.739	689.100	2310.326	3702.573	530.102	7756.012	728.306	217.830	122.714	171.800
208.697	692.100	2276.651	3713.692	527.071	7788.681	725.071	217.498	122.332	170.985
209.659	694.700	2281.975	3716.621	537.502	7809.530	721.454	218.556	122.013	169.953
210.647	697.700	2292.266	3739.025	536.012	7818.649	726.116	214.085	122.179	169.138
211.603	700.700	2276.154	3736.694	532.293	7782.287	731.172	213.576	122.001	168.883
212.562	703.600	2295.909	3726.250	532.700	7824.712	724.549	214.072	120.778	168.540
213.512	706.200	2311.358	3697.135	525.695	7828.431	730.217	215.129	122.714	169.877
214.471	709.200	2330.857	3714.940	525.631	7815.083	728.434	214.518	122.141	170.170
215.427	712.200	2327.164	3731.650	531.987	7811.097	730.561	213.945	121.746	171.520
216.389	715.100	2314.975	3723.461	528.293	7812.167	723.938	215.843	122.026	171.431
217.351	717.800	2296.023	3754.283	531.337	7815.937	721.671	216.938	121.517	171.418
218.308	720.700	2326.744	3757.251	531.388	7819.375	729.873	216.581	121.899	171.724
219.267	723.700	2317.089	3760.651	532.089	7828.635	733.146	216.492	121.746	172.144
220.226	726.700	2285.057	3729.587	537.973	7760.024	729.109	216.021	120.574	171.978
221.183	729.300	2281.147	3748.781	541.552	7794.629	725.746	213.359	122.459	172.768
222.137	732.200	2291.731	3754.691	544.137	7743.097	725.237	214.136	122.383	171.112
223.097	735.200	2288.114	3750.513	538.597	7837.359	761.383	213.728	122.586	170.463
224.092	738.200	2284.357	3746.985	558.135	7842.849	735.312	212.837	121.911	170.361
225.033	740.800	2285.401	3775.222	542.635	7825.387	728.370	212.990	121.810	173.176
225.989	743.800	2312.886	3758.359	537.680	7838.187	732.739	214.047	122.383	171.418
226.939	746.800	2350.803	3769.936	541.616	7790.782	741.705	214.212	123.007	172.806
227.886	749.400	2333.723	3782.138	537.158	7814.905	729.249	215.308	122.039	172.106
228.845	752.400	2296.596	3790.607	541.526	7822.891	732.943	218.212	123.644	172.335
229.802	755.300	2323.343	3780.915	540.240	7823.044	739.782	212.875	122.650	172.921
230.760	758.000	2303.410	3781.335	550.913	7840.989	732.841	215.257	122.497	174.360
231.715	760.900	2284.943	3794.619	547.576	7863.787	728.663	216.378	121.950	175.264
232.669	763.900	2287.770	3811.533	543.513	7829.934	728.370	214.811	122.599	174.589
233.629	766.500	2287.859	3805.229	546.188	7883.618	732.688	214.658	122.981	172.972
234.586	769.500	2298.443	3795.154	543.946	7830.456	735.426	214.875	122.841	174.182
235.550	772.500	2307.015	3800.835	556.976	7861.839	732.318	215.830	122.192	175.061
236.533	775.400	2289.146	3827.428	553.868	7852.694	740.049	216.097	122.332	174.882
237.488	778.100	2315.790	3820.704	550.200	7848.274	737.973	210.863	122.727	175.888
238.444	781.000	2327.164	3830.078	561.879	7902.417	735.796	214.671	121.249	174.933
239.422	784.000	2350.943	3843.413	550.595	7912.326	745.271	215.231	124.038	176.984
240.382	787.000	2321.254	3862.097	557.689	7907.015	739.298	215.830	121.058	176.513
241.340	789.600	2358.152	3853.729	558.593	7906.009	743.870	215.040	122.994	177.391
242.316	792.600	2348.778	3860.734	555.677	7927.724	742.304	217.562	124.026	178.474
243.273	795.500	2359.030	3859.461	556.466	7890.254	753.232	213.869	122.586	177.442
244.244	798.500	2330.412	3861.155	559.549	7932.475	741.947	219.294	123.300	177.544
245.220	801.500	2314.669	3889.124	563.331	7964.991	745.157	218.008	122.752	179.799
246.205	804.400	2313.179	3878.005	567.420	7997.520	740.623	220.211	123.771	180.053
247.200	807.400	2319.828	3865.065	561.472	8371.781	754.238	216.047	123.045	180.295
248.188	810.400	2332.908	3902.064	570.617	8028.763	765.319	216.760	124.497	179.531
