Mon, Oct 23, 2017	12:37 PM
 Notes: CO_top chamber_6.7E-07_60 sec_40 L_102317
 waiting time: 50.000
 time(s)	 temp (K)	 MS1=1.971	 MS2=17.737	 MS3=27.993	 MS4=125.586	 MS5=109.505	 MS6=125.586	 MS7=109.505	 MS8=125.586
0.000	105.800	5136.598	1036.577	15959.151
0.646	105.700	5181.926	1050.855	16093.622
1.297	105.700	5219.683	1061.487	16100.767
1.976	105.600	5187.502	1067.355	16147.510
2.650	105.500	5199.153	1074.775	16206.442
3.368	105.400	5212.927	1077.143	16147.090
4.016	105.400	5188.867	1093.523	16174.015
4.668	105.300	5192.307	1087.266	16160.934
5.360	105.200	5208.766	1093.424	16215.561
6.009	105.100	5211.337	1115.026	16207.983
6.660	105.100	5187.594	1110.869	16206.034
7.312	105.000	5202.443	1108.165	16178.396
8.002	104.900	5181.167	1121.783	16298.896
8.676	104.900	5202.052	1125.392	16728.904
9.393	104.900	5243.169	1139.786	20826.474
10.088	105.000	5289.386	1150.687	33545.207
10.742	105.200	5435.257	1160.633	43094.207
11.395	105.700	5543.537	1164.595	49186.381
12.077	106.400	5588.836	1169.987	51782.452
12.755	107.500	5642.868	1167.523	52243.282
13.445	109.100	5560.022	1174.958	51900.468
14.122	111.000	5579.968	1189.331	53059.077
14.776	113.400	5643.635	1206.448	54049.540
15.464	116.000	5698.951	1244.350	53850.596
16.111	118.800	5726.781	1270.682	52390.553
16.787	122.200	5721.720	1336.609	50784.589
17.449	125.100	5686.767	1395.056	49846.792
18.099	127.400	5712.311	1458.893	49315.032
18.751	130.100	5729.759	1511.950	49206.263
19.402	132.700	5702.564	1532.018	49883.078
20.065	135.300	5680.133	1524.107	50720.627
20.715	137.800	5748.171	1508.281	51141.464
21.404	140.700	5732.733	1468.991	51577.229
22.109	143.100	5741.671	1451.865	51026.951
22.785	145.600	5755.447	1427.706	50024.898
23.433	148.000	5713.609	1415.812	49275.753
24.083	150.500	5690.743	1399.343	48322.430
24.765	152.900	5710.635	1386.934	47196.770
25.415	155.300	5700.175	1385.192	46447.535
26.063	157.600	5662.957	1382.585	45627.448
26.739	159.900	5696.252	1373.204	44976.921
27.430	162.200	5654.085	1360.017	44066.851
28.079	164.400	5629.456	1367.278	43375.517
28.730	166.600	5672.063	1360.944	42554.843
29.382	168.800	5647.150	1369.900	41515.868
30.034	171.000	5541.183	1374.686	40961.208
30.683	173.100	5595.428	1360.589	40097.855
31.376	175.200	5608.470	1358.556	39494.084
32.031	177.400	5563.272	1361.548	38809.780
32.684	179.500	5603.217	1364.422	37908.077
33.334	181.600	5579.330	1370.555	37173.732
33.986	183.700	5528.883	1373.339	36623.645
34.635	185.700	5543.933	1364.777	35919.803
35.332	187.800	5536.930	1373.737	35129.812
35.985	189.900	5492.568	1365.464	34512.247
36.634	191.900	5472.285	1366.037	34032.057
37.284	193.900	5499.414	1378.091	33395.235
37.937	196.000	5430.841	1367.558	32888.821
38.586	198.000	5411.995	1367.730	32389.387
39.271	200.000	5418.453	1372.266	31751.838
39.925	202.000	5412.312	1362.536	31321.486
40.597	204.000	5424.167	1388.250	31074.896
41.247	206.000	5451.762	1387.531	30606.908
41.933	208.100	5368.412	1381.418	30038.837
42.606	210.100	5335.594	1372.710	29575.816
43.252	212.100	5351.618	1367.498	29126.538
43.904	214.100	5346.006	1368.156	28745.922
44.555	216.100	5310.079	1384.704	28491.638
45.217	218.100	5328.571	1388.741	28065.171
45.883	220.100	5323.293	1387.259	27767.113
46.536	222.100	5307.679	1393.674	27574.538
47.186	224.000	5315.596	1383.981	27244.371
47.837	226.000	5335.384	1391.527	26972.206
48.489	228.000	5284.884	1396.762	26724.838
49.151	230.000	5293.443	1405.678	26533.257
49.801	232.000	5312.312	1400.063	26212.553
50.452	234.000	5303.233	1415.659	26003.522
51.119	235.900	5276.458	1393.707	25792.683
51.769	237.900	5294.577	1411.444	25480.742
52.443	239.900	5295.255	1419.380	25249.257
53.097	241.900	5279.058	1416.857	25076.372
53.749	243.900	5267.053	1404.770	24803.965
54.397	245.500	5300.788	1423.232	24641.283
55.050	247.500	5262.293	1419.324	24538.831
55.700	249.500	5273.109	1422.800	24311.549
56.349	251.500	5286.174	1425.249	24099.563
57.002	253.500	5266.397	1423.396	24043.994
57.657	255.400	5271.234	1436.521	23871.109
58.327	257.400	5238.238	1435.659	23676.713
59.007	259.400	5251.845	1436.824	23603.109
59.659	261.400	5250.579	1445.757	23485.131
60.313	263.400	5277.983	1439.848	23302.427
60.981	265.300	5231.077	1450.899	23193.327
61.634	267.300	5215.094	1444.535	23287.411
62.289	269.300	5290.698	1455.943	23084.914
62.943	271.300	5235.227	1456.493	22958.810
63.597	273.300	5216.555	1448.516	22950.901
64.250	275.200	5232.201	1457.996	22847.061
64.923	277.200	5210.662	1456.948	22687.868
65.577	279.200	5203.407	1462.729	22812.379
66.262	281.200	5249.229	1449.443	22670.393
66.915	283.200	5196.809	1462.666	22608.303
67.569	285.200	5227.824	1472.838	22659.618
68.222	287.200	5254.976	1462.182	22688.581
68.901	289.100	5211.425	1471.797	22631.624
69.553	291.100	5204.029	1475.199	22649.786
70.205	293.100	5221.107	1472.373	22589.657
70.868	295.100	5201.241	1483.068	22618.492
71.563	297.400	5197.966	1488.603	22698.936
72.239	299.400	5192.379	1490.148	22678.940
72.936	301.300	5222.967	1488.867	22876.406
73.587	303.300	5221.783	1493.985	23070.815
74.257	305.300	5281.254	1476.432	23214.049
74.910	307.300	5269.027	1488.147	23210.190
75.592	309.200	5242.372	1510.745	23437.854
76.246	311.200	5270.260	1509.116	23541.146
76.899	313.200	5279.253	1507.217	23447.661
77.554	315.200	5231.099	1514.874	23710.758
78.209	317.100	5253.896	1508.895	23772.427
78.861	319.100	5232.534	1506.708	23881.566
79.508	321.100	5255.255	1518.356	23998.385
80.196	323.100	5271.017	1525.299	24090.444
80.848	325.100	5273.645	1516.846	24423.502
81.492	327.000	5296.558	1515.403	24562.469
82.143	329.000	5316.227	1537.583	24726.961
82.796	331.000	5303.565	1530.131	24664.845
83.482	333.000	5281.940	1504.796	24756.726
84.143	335.000	5274.004	1538.409	24884.307
84.794	336.900	5248.046	1533.996	24886.485
85.442	338.900	5238.863	1556.054	24973.411
86.118	340.900	5252.794	1536.939	25129.216
86.772	342.900	5260.025	1542.110	25313.652
87.419	344.800	5254.450	1554.429	25461.994
88.070	346.800	5278.301	1545.751	25766.586
88.725	348.800	5289.113	1555.613	25875.559
89.412	350.800	5237.421	1555.653	25940.311
90.090	352.800	5238.072	1556.035	26170.701
90.742	354.800	5249.130	1554.976	26204.452
91.395	356.800	5237.544	1559.517	26267.829
92.048	358.700	5224.512	1571.413	26525.436
92.701	360.700	5232.229	1573.626	26693.366
93.355	362.700	5220.495	1567.754	26846.038
94.009	364.700	5212.420	1573.070	27175.428
94.688	366.600	5244.862	1581.537	27448.103
95.343	368.600	5258.961	1586.802	27599.259
95.994	370.600	5247.067	1588.869	27952.708
96.641	372.600	5244.263	1590.040	28145.003
97.295	374.600	5246.713	1591.814	28308.043
97.946	376.200	5219.380	1595.718	28638.757
98.594	378.200	5237.659	1605.118	29111.942
99.266	380.200	5270.828	1617.365	29250.056
99.919	382.100	5281.377	1601.672	29716.503
100.566	384.100	5318.477	1612.781	30277.263
101.223	386.100	5353.245	1615.320	30548.792
101.883	388.100	5348.949	1625.879	30784.556
102.534	390.100	5309.753	1624.952	31098.153
103.185	392.000	5331.130	1641.810	31417.914
103.839	394.000	5295.964	1641.841	31648.991
104.494	396.000	5281.565	1639.205	32196.124
105.145	397.900	5292.669	1647.583	32582.013
105.799	399.900	5304.707	1644.022	32871.882
106.451	401.900	5323.098	1646.542	33288.363
107.102	403.900	5329.614	1663.632	33854.588
107.757	405.900	5348.896	1673.213	34060.180
108.409	407.900	5301.451	1675.597	34214.953
109.089	409.800	5277.327	1682.899	34618.762
109.746	411.800	5307.837	1677.409	34757.335
110.440	413.800	5272.543	1695.071	35051.661
111.093	415.700	5244.335	1696.530	35230.838
111.739	417.700	5232.183	1706.093	35375.180
112.392	419.700	5241.798	1708.745	35532.118
113.065	421.700	5217.588	1718.736	35951.542
113.728	423.700	5210.313	1713.323	36061.840
114.380	425.600	5231.145	1728.896	36122.797
116.336	431.600	5138.436	1724.930	35743.403
116.986	433.500	5131.737	1743.128	36473.164
117.635	435.200	5147.555	1749.849	36772.419
118.288	437.100	5171.955	1751.059	37066.020
118.941	439.100	5144.450	1765.916	37483.189
119.596	441.100	5137.631	1781.025	37907.288
120.247	443.100	5181.679	1794.297	38282.109
120.897	445.100	5176.267	1791.127	38679.053
121.552	447.100	5146.577	1794.280	39182.232
122.205	449.000	5189.304	1786.428	39613.539
122.856	451.000	5192.095	1804.351	39775.215
123.509	453.000	5150.090	1819.679	40250.692
124.187	455.000	5164.148	1819.286	40623.055
124.836	457.000	5168.408	1833.342	40946.918
125.490	458.900	5135.491	1840.125	41307.869
126.142	460.900	5141.364	1837.787	41615.760
126.794	462.900	5178.443	1852.864	41932.248
127.446	464.900	5163.608	1862.641	42184.760
128.104	466.900	5154.162	1874.620	42956.182
128.793	468.800	5171.915	1878.780	43360.870
129.445	470.800	5191.878	1899.788	43589.845
130.097	472.800	5175.976	1894.827	44274.544
130.749	474.800	5174.045	1894.669	44473.628
131.401	476.800	5167.930	1915.578	45273.999
132.051	478.400	5165.766	1918.121	46369.283
132.703	480.400	5179.672	1955.575	47511.373
133.355	482.400	5208.828	1942.009	48918.445
134.005	484.400	5210.714	1973.650	50650.462
134.661	486.300	5227.730	1986.341	52199.010
135.313	488.300	5265.739	1979.290	53343.635
135.962	490.300	5265.975	1985.580	53956.831
136.651	492.300	5282.108	2000.832	53891.111
137.306	494.200	5334.785	2010.047	53032.127
137.954	496.200	5264.468	2017.102	51250.807
138.607	498.200	5292.496	2020.067	49039.810
139.261	500.200	5280.895	2039.834	46264.181
139.910	502.200	5236.601	2035.454	42773.172
140.561	504.100	5199.055	2043.589	38938.966
141.241	506.100	5173.296	2060.411	34161.995
141.890	508.100	5120.279	2050.143	29721.852
142.542	510.100	5073.948	2054.965	25618.614
143.192	512.100	5022.359	2071.053	22352.199
143.847	514.000	4952.996	2077.425	20064.605
144.500	516.000	4973.707	2086.817	18818.598
145.152	518.000	4918.777	2104.999	18015.616
145.806	520.000	4864.262	2129.267	17567.726
146.457	521.600	4868.744	2123.556	17307.177
147.111	523.600	4841.032	2122.833	17061.949
147.764	525.600	4850.046	2136.729	16836.183
148.416	527.600	4800.350	2156.371	16687.306
149.064	529.500	4814.009	2182.030	16559.356
149.709	531.500	4822.694	2182.320	16411.448
150.362	533.500	4791.968	2195.551	16296.947
151.010	535.500	4780.189	2190.291	16268.965
151.662	537.500	4812.002	2223.970	16256.814
152.314	539.400	4816.145	2231.185	16282.657
152.963	541.400	4796.693	2227.439	16217.281
153.612	543.400	4817.028	2255.527	16178.918
154.263	545.000	4782.502	2268.982	16103.824
154.915	547.000	4790.824	2272.440	16036.054
155.585	549.000	4765.096	2294.109	16092.018
156.238	551.000	4748.216	2297.523	16026.743
156.919	553.300	4760.053	2303.101	16007.728
157.572	555.200	4761.067	2337.862	16044.804
158.225	556.900	4762.862	2342.918	16098.666
158.880	558.900	4763.355	2358.591	15977.326
159.534	560.800	4763.862	2366.477	16020.158
160.196	562.800	4776.762	2380.759	15945.306
160.847	564.800	4746.737	2406.198	15882.019
161.499	566.800	4747.400	2408.823	15958.017
162.152	568.800	4735.888	2427.705	15985.057
162.805	570.700	4765.303	2435.580	15967.124
163.456	572.700	4745.987	2481.440	15926.355
164.105	574.700	4739.952	2474.354	15841.428
164.759	576.700	4745.964	2485.098	15829.443
165.413	578.700	4772.750	2504.155	15984.904
166.106	580.600	4790.215	2529.166	16108.027
166.760	582.600	4820.910	2543.639	16023.419
167.414	584.600	4798.816	2555.091	16015.803
168.101	586.600	4812.670	2579.957	16054.662
168.753	588.500	4818.176	2612.300	15966.143
169.406	590.500	4771.276	2612.468	15945.039
170.059	592.500	4769.738	2634.832	16063.653
170.711	594.500	4789.473	2629.679	16035.187
171.362	596.500	4804.205	2650.433	16016.860
172.016	598.500	4792.132	2684.831	16042.536
172.668	600.400	4810.391	2702.279	15933.678
173.319	602.400	4741.219	2709.206	15901.557
173.974	604.400	4768.519	2739.081	15919.464
174.627	606.400	4743.918	2747.573	15902.614
175.284	608.300	4734.889	2765.218	15788.635
175.965	610.300	4745.280	2789.702	15794.596
176.618	612.300	4736.322	2809.244	15863.169
177.265	614.300	4761.482	2813.288	15800.722
177.915	615.900	4744.198	2831.455	15804.263
178.569	617.900	4743.522	2857.432	15848.153
179.223	619.900	4760.420	2879.852	15883.484
179.875	621.900	4760.031	2889.161	15861.743
180.525	623.800	4725.378	2933.321	15774.574
181.178	625.800	4739.911	2931.541	15861.666
181.829	627.800	4748.084	2970.466	15907.339
182.479	629.800	4773.457	2985.123	15926.737
183.133	631.700	4778.640	3013.637	15937.690
183.815	633.700	4781.369	3018.171	16024.107
184.466	635.700	4783.939	3047.152	15909.415
185.119	637.700	4793.541	3056.581	16054.178
