Tue, Sep 26, 2017	1:57 PM
 Notes: furfural_4.5E-9_120s_92617
 waiting time: 30.000
 time(s)	 temp (K)	 MS1=1.922	 MS2=17.627	 MS3=27.844	 MS4=39.000	 MS5=41.000	 MS6=68.654	 MS7=82.865	 MS8=97.084
0.000	94.600	3277.456	1160.467	8570.584	1472.472	226.338	122.344	85.587	575.940
1.072	94.600	2570.787	1092.964	8530.833	1478.445	223.930	122.930	86.530	572.361
2.089	94.600	2546.205	1091.384	8500.202	1458.334	225.331	123.121	85.587	571.215
3.087	94.600	2560.406	1084.303	8469.495	1453.966	224.198	123.949	85.421	569.750
4.108	94.600	2570.532	1074.050	8556.319	1428.646	223.166	121.950	85.383	562.669
5.147	94.600	2526.897	1069.796	8575.373	1404.752	222.440	121.224	84.899	556.619
6.145	94.600	2534.921	1077.451	8458.248	1402.307	219.027	121.007	84.530	554.530
7.186	94.700	2526.336	1070.471	8403.584	1389.507	219.192	119.173	84.836	542.736
8.229	94.800	2520.758	1075.579	8671.711	1360.773	222.071	120.205	85.651	540.851
9.240	95.100	2522.286	1075.260	9531.727	1369.396	213.474	119.262	85.905	537.171
10.239	95.800	2519.230	1082.545	10336.021	1360.034	216.811	117.912	85.944	530.471
11.267	97.100	2516.096	1073.885	10047.248	1333.250	222.733	119.988	85.613	526.688
12.279	99.500	2539.124	1092.760	10424.438	1321.392	224.644	120.217	85.956	517.123
13.281	102.300	2540.015	1099.434	10560.820	1317.737	218.084	118.192	85.905	520.066
14.291	105.900	2593.954	1097.129	10204.645	1303.179	221.294	120.090	86.173	514.589
15.318	109.800	2569.551	1089.589	9915.298	1288.481	217.435	120.842	86.504	509.418
16.356	114.300	2583.625	1107.700	9878.248	1302.657	216.148	123.274	86.530	506.297
17.391	118.500	2587.446	1109.891	9665.791	1315.164	214.162	136.839	85.982	517.671
18.400	122.600	2535.074	1131.912	9574.509	1354.316	219.906	138.685	86.109	517.646
19.421	127.000	2548.345	1199.810	9617.533	1350.100	218.899	126.879	85.753	538.253
20.434	131.000	2577.295	1382.884	9405.165	1381.839	224.682	127.350	85.396	561.255
21.436	134.800	2562.890	1826.328	9443.629	1417.094	225.561	125.376	86.555	569.725
22.451	138.600	2592.642	2577.040	9359.390	1471.746	225.650	127.273	86.288	617.589
23.450	142.300	2607.735	3015.110	9289.990	1542.522	231.980	129.884	86.249	669.502
24.478	146.300	2611.238	2506.047	9212.488	1755.412	249.875	133.769	86.020	803.337
25.478	149.900	2564.126	2156.521	9252.914	2182.287	281.792	144.646	86.046	1080.953
26.478	153.400	2600.399	2063.316	9463.485	3112.111	345.742	165.839	87.154	1732.690
27.478	156.800	2621.656	1640.746	9797.626	5096.730	464.955	209.997	87.931	3168.674
28.529	160.100	2624.063	1558.939	10481.102	9396.530	704.706	320.192	89.574	6268.547
29.531	163.400	2708.926	1591.749	11612.252	16441.264	1089.168	480.353	94.362	10999.743
30.529	167.000	2766.278	1629.971	12913.216	25282.232	1512.719	657.823	95.674	15911.338
31.541	170.200	2796.031	1673.771	14149.722	31008.170	1805.313	781.367	99.686	20161.937
32.579	173.300	2804.437	1766.327	15401.702	38773.010	2155.999	939.668	103.405	24875.493
33.616	176.800	2820.103	1703.473	16279.332	47799.509	2657.751	1226.658	106.373	36981.845
34.705	180.300	2829.922	1725.061	19652.339	67550.469	3558.333	1699.652	121.224	52667.750
35.705	183.400	3252.403	1774.733	21282.808	77521.300	3935.179	1818.152	124.764	53924.990
36.703	186.500	3270.731	1774.275	21376.791	76513.999	3930.747	1842.567	125.478	56000.866
37.704	189.500	3307.883	1767.282	21977.518	81311.641	4065.384	1888.992	126.089	55174.015
38.708	192.500	3335.865	1731.060	21181.184	71723.859	3518.824	1517.508	120.001	33886.353
39.735	195.600	2886.256	1628.366	17719.914	44707.915	2353.426	1022.404	112.614	23364.262
40.730	198.600	3002.157	1557.437	16503.876	36261.254	1997.073	865.007	110.143	19260.782
41.731	201.600	2942.971	1527.875	15759.278	32324.622	1814.789	790.155	108.411	17146.086
42.729	204.600	2903.425	1502.097	15276.681	29679.096	1692.698	728.765	107.112	15171.007
43.762	207.900	2800.998	1497.715	14680.653	25909.667	1513.305	631.293	104.985	12425.780
44.762	210.900	2813.161	1454.615	14058.605	21932.775	1310.337	550.557	103.380	10039.046
45.780	213.900	2764.215	1427.563	13413.975	18479.439	1141.400	488.046	102.170	8340.271
46.799	216.900	2711.677	1398.333	12923.406	15928.341	1014.775	435.470	101.418	7121.762
47.803	220.200	2756.726	1394.652	12506.949	13961.528	915.863	386.588	100.323	6132.178
48.807	223.200	2681.033	1368.606	12120.513	12375.089	835.395	358.707	100.718	5323.452
49.828	226.100	2681.543	1361.677	11843.393	11032.310	767.395	327.796	100.412	4668.009
50.858	229.100	2752.523	1360.849	11605.858	9999.741	703.496	303.597	99.202	4124.608
51.864	232.400	2649.829	1348.100	11524.052	9064.465	654.473	291.204	98.769	3715.857
52.899	235.400	2626.050	1339.452	11246.359	8010.448	607.348	270.546	98.680	3350.601
53.915	238.300	2604.271	1346.776	11013.944	7596.462	570.413	259.159	97.470	3038.660
54.916	241.300	2605.774	1331.237	10814.313	6918.437	542.291	251.556	97.406	2797.317
55.918	244.300	2581.587	1314.094	10728.597	6422.747	509.443	240.055	97.610	2551.173
56.950	247.600	2566.507	1318.208	10512.892	5995.924	492.160	234.947	97.674	2389.241
57.963	250.600	2577.104	1314.731	10400.786	5595.031	463.210	231.751	96.973	2232.252
58.992	253.500	2604.564	1309.611	10280.605	5265.552	438.552	232.158	96.757	2094.966
60.004	256.800	2616.396	1308.337	10161.570	4961.788	427.930	230.757	96.986	1950.369
61.001	259.800	2608.219	1307.637	10076.261	4699.582	414.697	236.170	97.419	1860.118
62.021	262.800	2569.156	1311.801	10243.797	4500.855	405.106	245.417	97.228	1762.162
63.056	265.700	2571.322	1316.679	9996.417	4322.978	394.319	263.248	97.317	1677.414
64.072	268.700	2603.417	1302.809	9903.453	4196.034	379.341	289.943	98.273	1583.202
65.103	272.000	2573.818	1284.252	9866.543	4084.896	376.284	335.336	97.317	1514.540
66.123	275.000	2578.301	1287.819	9850.190	4006.872	375.392	372.437	98.909	1451.227
67.142	277.900	2607.837	1322.194	9755.609	3976.496	370.158	399.706	98.858	1384.119
68.145	281.200	2633.374	1317.686	9703.873	3789.003	363.535	390.421	98.999	1309.623
69.145	284.200	2639.054	1319.915	9630.817	3556.715	350.887	342.710	97.750	1258.907
70.148	287.200	2744.206	1339.949	9518.800	3328.287	346.672	284.403	97.903	1192.053
71.147	290.200	2809.799	1326.869	9528.314	3121.307	349.499	258.726	96.579	1143.578
72.146	293.100	2866.119	1330.791	9439.477	3002.094	345.513	251.683	96.897	1093.333
73.147	296.100	2924.223	1325.226	9452.991	2913.996	346.863	257.096	96.910	1052.462
74.143	299.100	2948.945	1308.426	9425.862	2835.577	355.905	261.095	97.750	1016.991
75.141	302.000	2998.438	1315.979	9404.083	2770.609	363.203	268.788	97.661	975.674
76.175	305.300	3034.801	1320.959	9459.117	2748.689	368.311	278.442	98.120	932.497
77.176	308.300	3045.258	1299.065	9316.125	2674.525	377.315	291.663	98.502	902.363
78.172	311.300	3068.756	1301.014	9281.049	2644.862	381.238	302.731	98.629	873.629
79.207	314.200	3054.810	1304.172	9376.725	2583.587	397.082	313.328	98.362	852.245
80.215	317.200	3076.144	1306.401	9388.990	2554.026	389.390	317.250	99.291	807.311
81.216	320.200	3068.094	1292.811	9367.185	2516.733	393.542	330.700	98.693	782.793
82.214	323.100	3078.678	1308.299	9327.193	2474.525	387.938	338.329	99.941	757.575
83.215	326.400	3066.247	1293.512	9403.739	2425.910	381.773	344.353	98.757	723.530
84.216	329.400	3097.248	1286.698	9291.645	2384.300	382.665	353.829	100.132	714.780
85.216	332.400	3070.705	1287.424	9314.813	2346.345	378.334	356.912	100.400	687.168
86.237	335.300	3073.443	1288.175	9337.891	2307.562	371.380	357.103	99.584	670.458
87.240	338.300	3031.706	1284.787	9270.592	2222.305	362.630	351.970	98.833	641.024
88.239	341.300	3052.377	1288.647	9286.245	2169.321	353.052	348.990	99.712	622.760
89.238	344.300	3062.859	1274.216	9310.533	2124.514	348.034	344.099	98.858	599.732
90.240	347.200	3047.143	1286.087	9231.198	2046.427	338.673	340.762	99.419	591.479
91.239	350.200	3064.821	1286.914	9331.791	1979.357	325.427	328.700	98.897	569.496
92.240	353.500	3092.879	1284.558	9289.251	1916.388	320.918	316.830	98.948	559.994
93.238	356.400	3058.988	1282.138	9345.470	1852.960	309.596	302.680	99.483	546.328
94.232	359.400	3063.382	1296.658	9399.714	1802.448	295.433	286.734	97.801	522.345
95.230	362.400	3095.567	1275.210	9357.085	1702.530	290.147	261.286	97.674	513.646
96.227	365.400	3068.629	1297.053	9355.480	1616.801	280.187	244.869	97.024	496.720
97.228	368.300	3081.888	1294.314	9576.751	1552.941	275.755	226.070	96.833	488.352
98.228	371.300	3104.278	1315.584	9545.801	1487.730	265.056	208.417	96.158	484.582
99.231	374.300	3093.898	1290.430	9589.564	1415.387	255.580	189.427	95.572	475.386
100.232	377.200	3091.211	1291.194	9652.061	1351.335	251.760	176.513	95.725	464.369
101.231	380.200	3078.079	1298.938	9731.257	1300.746	246.079	161.942	95.598	456.180
102.268	383.500	3137.419	1288.761	9936.963	1241.331	240.666	152.670	94.719	448.754
103.268	386.500	3115.079	1315.762	9987.004	1208.471	238.272	144.060	94.897	436.209
104.267	389.400	3155.937	1292.187	10185.884	1184.246	234.578	137.959	95.038	432.795
105.265	392.400	3151.607	1304.784	10352.999	1143.948	228.923	135.017	94.948	424.313
106.268	395.400	3206.055	1313.699	10625.062	1112.985	225.866	131.540	94.439	415.703
107.268	398.300	3245.729	1319.482	10943.155	1097.167	221.307	127.898	93.917	406.813
108.265	401.300	3252.021	1306.452	11102.615	1075.948	219.027	129.044	93.802	404.406
109.308	404.600	3329.446	1305.459	11509.749	1070.930	217.053	125.223	93.293	393.554
110.309	407.500	3392.593	1325.162	11860.205	1048.182	215.410	124.140	94.337	380.869
111.308	410.500	3471.406	1330.333	12197.823	1040.528	216.072	122.879	93.318	378.525
112.311	413.500	3503.910	1328.193	12762.748	1018.889	214.123	124.331	93.153	373.698
113.313	416.400	3587.066	1335.071	12859.010	1018.099	211.869	120.905	93.216	369.164
114.310	419.400	3609.266	1341.503	13273.632	1012.788	208.507	121.313	92.872	361.764
115.306	422.400	3672.961	1340.573	13508.785	1001.287	212.251	120.663	92.796	362.261
116.308	425.300	3729.536	1334.001	13749.644	985.545	207.004	120.943	93.853	354.186
117.305	428.300	3713.730	1339.210	13900.928	983.774	210.379	120.892	93.242	353.613
118.306	431.600	3693.237	1348.202	13985.931	980.998	209.080	120.103	93.012	347.932
119.341	434.500	3603.407	1351.017	14044.417	980.908	209.958	118.383	92.911	347.996
120.340	437.500	3535.152	1365.575	14271.788	980.781	209.334	117.823	92.057	342.227
121.341	440.500	3353.021	1366.887	14298.458	977.737	208.991	117.938	93.700	345.869
122.338	443.500	3362.115	1344.980	14344.831	972.146	206.456	118.383	92.299	342.927
123.340	446.500	3275.482	1369.052	14718.557	968.873	207.424	117.466	92.872	342.519
124.339	449.400	3180.684	1369.396	14489.709	971.292	206.430	116.728	92.745	346.328
125.370	452.700	3249.550	1393.569	14993.830	983.023	205.361	117.161	92.350	347.474
126.389	455.700	3223.160	1381.750	15137.586	982.615	204.660	117.517	92.630	347.907
127.418	458.700	3182.913	1394.448	15138.414	983.787	207.475	118.689	92.872	344.341
128.417	462.000	3289.606	1415.667	15421.316	995.250	209.283	117.339	93.051	350.492
129.416	464.900	3355.225	1397.136	15789.871	990.142	211.359	118.689	92.337	355.995
130.417	467.900	3396.936	1408.904	16010.874	1004.420	210.697	119.249	92.197	355.460
131.418	470.900	3525.154	1407.274	16017.089	1011.438	211.385	116.371	92.618	354.403
132.421	473.800	3663.612	1413.973	16227.304	1009.425	208.430	118.078	92.477	357.090
133.421	476.800	3805.522	1419.590	16190.394	1016.634	212.340	118.192	92.567	359.090
134.416	479.800	3913.170	1424.990	16164.412	1015.373	208.532	116.881	92.516	361.267
135.417	482.800	4044.559	1451.941	15906.804	1018.379	211.156	116.180	92.044	357.230
136.420	485.700	4070.032	1434.785	15471.574	1020.213	212.162	117.275	91.930	356.058
137.444	489.000	4052.991	1440.885	15202.186	997.568	210.659	116.486	91.866	363.216
138.440	492.000	4104.268	1455.125	14569.961	995.186	209.143	116.677	92.185	357.396
139.462	495.000	4007.522	1446.286	13720.338	986.907	213.792	115.862	92.847	367.101
140.460	497.900	3923.449	1448.897	13145.873	976.591	209.704	115.887	92.490	358.657
141.494	500.900	3834.726	1448.069	12569.600	979.278	207.666	115.518	92.197	360.465
142.521	504.200	3750.857	1456.857	11843.941	965.039	213.334	116.639	91.841	357.918
143.526	507.200	3618.500	1452.565	11187.848	958.683	210.073	116.931	91.548	358.631
144.576	510.100	3526.033	1460.105	10609.880	949.717	209.602	115.008	90.936	357.829
145.576	513.400	3409.698	1457.341	10181.719	941.438	210.302	117.632	91.051	359.268
146.575	516.400	3409.953	1448.820	9792.022	945.183	208.023	117.084	91.268	365.063
147.579	519.300	3307.820	1469.097	9243.514	944.062	207.666	115.811	91.599	361.395
148.578	522.300	3312.456	1461.990	9081.672	930.982	210.060	115.416	91.637	359.624
149.576	525.300	3264.974	1462.206	8708.940	932.714	207.373	115.416	91.026	365.292
150.575	528.200	3313.245	1477.222	8558.115	932.586	209.704	115.887	91.917	360.898
151.576	531.200	3271.903	1497.244	8552.103	929.415	210.290	114.562	91.713	360.936
152.579	534.200	3278.437	1482.393	8500.737	938.916	210.175	114.690	91.841	363.598
153.616	537.500	3281.531	1476.522	8487.007	921.187	212.264	114.906	90.745	360.134
154.617	540.400	3292.599	1467.505	8488.714	922.805	211.742	114.371	92.197	363.496
155.615	543.400	3297.159	1487.297	8459.879	922.779	211.691	115.645	90.885	359.841
156.614	546.400	3289.352	1489.526	8507.768	921.684	210.570	115.492	90.707	356.517
157.613	549.400	3278.487	1492.150	8419.364	915.392	211.691	114.715	91.178	365.229
158.608	552.300	3173.819	1506.758	8313.117	920.028	214.047	115.480	91.318	356.810
159.604	555.300	3194.401	1510.516	8269.634	920.143	214.620	115.976	90.784	361.433
160.602	558.300	3152.791	1521.558	8398.616	926.154	212.264	114.754	90.159	363.140
161.646	561.600	3148.359	1530.779	8431.349	931.007	213.983	114.308	91.115	360.771
162.647	564.500	3115.932	1542.331	8381.792	924.308	214.786	113.989	91.382	361.318
163.653	567.500	3088.498	1521.494	8312.378	920.831	212.531	113.200	90.949	355.065
164.684	570.400	3039.590	1532.702	8322.936	920.983	212.315	114.932	91.650	359.535
165.684	573.400	3044.570	1542.127	8352.319	922.270	216.021	114.320	90.822	363.203
166.681	576.400	2954.765	1544.382	8329.992	917.022	213.015	114.129	91.548	360.478
167.672	579.400	2935.393	1557.959	8395.623	919.684	214.735	113.595	91.217	364.464
168.665	582.300	2943.939	1565.028	8364.470	925.594	215.830	114.461	90.465	355.969
169.730	585.600	2844.085	1581.954	8434.215	925.760	215.817	113.913	90.656	362.783
170.727	588.600	2866.476	1585.011	8529.955	924.231	219.549	115.034	90.580	364.286
171.726	591.600	2834.813	1613.464	8480.283	925.849	217.639	115.021	91.089	365.330
172.730	594.500	2855.688	1606.663	8528.732	931.058	219.485	114.766	91.382	367.712
173.731	597.500	2865.483	1609.974	8489.682	925.900	218.543	115.123	90.822	365.891
174.728	600.800	2874.487	1629.385	8516.913	927.466	217.116	114.461	91.318	360.643
175.727	603.700	2915.690	1615.375	8461.394	932.510	218.033	114.613	90.414	365.012
176.727	606.700	2909.551	1624.086	8508.061	931.771	219.269	114.868	90.300	364.732
177.727	609.700	2939.583	1642.121	8564.649	938.190	218.237	114.295	90.975	365.878
178.763	612.700	2923.433	1633.269	8456.644	940.279	218.938	113.875	90.542	366.324
179.765	615.600	2984.428	1655.074	8470.819	938.904	218.581	112.550	90.121	367.801
180.765	618.600	2946.079	1639.892	8584.581	939.451	219.600	113.200	90.987	370.056
181.766	621.900	2953.619	1659.061	8458.924	937.082	222.147	114.397	90.924	370.336
182.767	624.900	2987.587	1664.869	8524.402	947.170	222.377	114.117	90.809	372.246
183.769	627.800	2958.140	1654.157	8507.398	944.495	219.154	114.282	90.758	366.630
184.767	630.800	3019.212	1679.847	8532.426	949.882	220.390	114.244	90.592	372.679
185.766	633.800	3029.630	1665.098	8564.063	940.954	217.180	115.327	91.331	370.960
186.767	636.800	3007.545	1686.355	8573.182	964.631	221.905	113.989	90.249	376.080
187.773	639.700	2994.821	1703.727	8496.916	945.654	218.403	114.855	91.395	377.723
188.777	642.700	2953.925	1686.380	8555.975	958.734	223.867	114.562	90.873	373.940
189.781	645.700	2977.665	1697.155	8574.660	964.835	220.492	113.047	90.363	380.984
190.781	649.000	2933.190	1716.629	8560.930	964.848	220.874	115.887	90.452	379.875
191.779	651.900	2988.733	1700.148	8619.899	971.496	222.962	114.371	90.172	386.893
192.780	654.900	2977.665	1716.922	8643.780	970.095	223.383	114.206	90.312	386.027
193.781	657.900	2934.565	1727.506	8682.423	973.432	221.956	113.913	90.720	380.117
194.774	660.800	2955.033	1741.797	8636.864	982.934	220.632	115.403	91.089	381.990
195.774	663.800	2954.778	1728.029	8577.016	983.609	222.619	114.562	90.159	387.836
196.776	666.800	2975.513	1743.962	8621.059	983.137	220.402	114.613	90.580	391.364
197.777	669.700	2974.099	1737.377	8591.051	988.156	223.879	114.588	91.535	392.676
198.778	672.700	2971.501	1758.341	8685.072	995.632	220.772	114.219	90.618	392.535
199.779	675.600	2961.617	1779.955	8677.379	998.052	221.370	114.486	90.542	393.414
200.778	678.600	2950.027	1785.636	8621.835	997.377	221.192	114.384	90.363	394.701
201.778	681.600	2934.298	1798.334	8616.053	999.185	223.586	114.779	91.535	395.618
202.780	684.900	2926.376	1798.385	8557.618	920.156	187.058	113.212	89.561	352.276
203.779	687.800	2749.454	1674.918	7946.447	968.236	211.334	111.977	90.516	375.800
204.772	690.800	2765.756	1756.062	8165.374	996.383	216.747	115.034	90.312	386.766
205.772	693.800	2879.238	1777.077	8378.174	1009.107	219.753	112.869	90.516	396.395
206.777	696.700	2845.283	1804.218	8404.717	1023.028	219.995	115.403	90.185	396.089
207.803	699.700	2832.202	1815.401	8603.915	1021.105	222.542	116.779	89.841	403.298
208.803	702.700	2823.058	1809.465	8559.873	1038.375	221.956	113.518	89.930	408.698
209.808	705.900	2818.014	1823.756	8478.767	1031.294	224.504	114.945	90.682	412.927
210.837	708.900	2801.648	1863.481	8429.222	1048.259	225.892	115.378	89.994	412.455
211.837	711.900	2773.054	1847.395	8428.025	1048.335	224.784	116.740	91.000	416.658
212.836	714.800	2727.279	1846.911	8413.314	1066.268	222.657	114.792	90.618	412.443
213.882	718.100	2698.864	1850.324	8379.588	1069.198	224.847	116.384	90.007	414.633
214.881	721.100	2705.296	1886.432	8360.522	1075.464	223.561	116.014	90.427	417.079
215.886	724.100	2675.378	1881.261	8424.191	1068.790	225.344	114.703	89.956	424.631
216.886	727.100	2635.501	1886.878	8375.309	1073.655	224.860	114.435	90.108	423.549
217.879	730.000	2602.322	1903.040	8331.788	1066.064	222.300	115.811	90.542	423.702
218.875	733.000	2615.594	1901.575	8328.884	1085.029	222.886	116.193	90.083	425.599
219.876	735.900	2582.415	1932.168	8269.061	1084.278	226.006	116.104	91.102	424.338
220.917	739.300	2562.381	1911.905	8335.380	1083.501	226.287	116.970	90.032	431.789
221.928	742.200	2505.105	1928.004	8325.764	1093.435	223.803	114.843	89.650	427.650
222.924	745.200	2572.570	1945.249	8335.902	1098.963	224.669	117.352	90.580	431.382
223.927	748.100	2946.805	1962.685	8322.223	1097.944	228.949	115.836	90.032	424.224
224.978	751.100	2561.540	1933.264	8267.125	1099.765	222.096	115.658	90.096	434.782
225.977	754.400	2585.026	1941.733	8232.011	1109.317	225.522	116.995	90.338	431.369
226.977	757.400	2564.431	1944.625	8292.866	1111.534	224.478	118.014	90.733	437.546
227.977	760.300	2588.605	1972.709	8257.840	1113.075	228.401	116.715	89.943	440.412
228.974	763.300	2549.173	1972.250	8297.604	1114.616	228.898	116.511	91.166	442.602
230.004	766.300	2538.704	1988.680	8296.789	1117.303	226.299	115.976	90.223	440.119
231.005	769.200	2566.329	1967.678	8350.040	1120.232	229.840	116.830	89.994	446.181
232.004	772.200	2580.224	1991.316	8274.678	1130.205	229.292	117.148	90.198	448.105
233.040	775.500	2545.135	2003.098	8322.643	1130.511	227.114	116.180	90.592	443.086
234.039	778.500	2588.529	1983.700	8446.607	1146.266	230.490	119.148	90.936	450.537
235.043	781.400	2578.034	2014.701	8363.413	1132.854	227.191	114.461	89.535	452.320
236.067	784.400	2569.322	2043.116	8301.463	1129.033	232.120	116.397	90.682	450.206
237.066	787.400	2585.281	2025.794	8457.561	1134.803	230.146	117.479	90.631	454.358
238.067	790.300	2596.514	2029.882	8387.956	1137.911	228.910	115.403	90.554	449.022
239.068	793.600	2575.002	2056.107	8392.427	1137.860	228.656	115.645	90.758	444.971
240.068	796.600	2577.308	2068.538	8381.843	1133.682	231.381	116.868	90.924	449.862
241.103	799.600	2557.248	2056.272	8362.216	1138.140	226.248	116.244	89.867	450.283
242.104	802.500	2552.777	2025.883	8379.524	1142.139	231.814	115.480	90.312	446.716
243.105	805.500	2509.894	2020.534	8415.772	1146.240	230.388	114.919	90.503	448.334
