Mon, Jul 24, 2017	3:09 PM
 Notes: HOAc_9.3E-09_15 s_724_2 masses
 waiting time: 50.000
 time(ms)	 temp (K)	 MS1=61.297	 MS2=44.784	 MS3=28.250	 MS4=44.784	 MS5=61.297	 MS6=31.397	 MS7=68.640	 MS8=90.000
0.000	92.400	24560.000	94850.000
0.320	92.400	21430.000	93940.000
0.637	92.400	21330.000	94670.000
0.954	92.400	21590.000	94410.000
1.269	92.400	21770.000	93720.000
1.586	92.400	21440.000	94050.000
1.903	92.400	21140.000	94690.000
2.220	92.400	21900.000	96100.000
2.536	92.400	21450.000	95340.000
2.852	92.400	21210.000	94880.000
3.170	92.400	21160.000	93890.000
3.487	92.400	21350.000	94340.000
3.803	92.400	21520.000	94320.000
4.120	92.400	21920.000	94560.000
4.438	92.400	21380.000	95230.000
4.756	92.400	21180.000	95490.000
5.074	92.400	21430.000	95250.000
5.390	92.400	21060.000	95510.000
5.706	92.400	21540.000	93960.000
6.023	92.500	21410.000	94800.000
6.340	92.500	21690.000	95380.000
6.657	92.400	21260.000	96020.000
6.974	92.400	21180.000	96670.000
7.291	92.400	21030.000	94160.000
7.607	92.400	21140.000	94500.000
7.924	92.400	20820.000	95420.000
8.241	92.400	20240.000	96410.000
8.559	92.500	20250.000	95770.000
8.874	92.500	20630.000	95490.000
9.192	92.600	20420.000	96280.000
9.508	92.700	19960.000	99530.000
9.825	92.800	21120.000	101520.000
10.144	93.000	44660.000	106950.000
10.461	93.300	39550.000	101230.000
10.776	93.600	29030.000	101380.000
11.092	94.000	26890.000	103480.000
11.409	94.300	26620.000	106850.000
11.724	94.800	26840.000	107040.000
12.040	95.400	25500.000	107590.000
12.360	96.100	25410.000	108470.000
12.676	96.800	24360.000	106660.000
12.993	97.600	24310.000	105600.000
13.310	98.600	24400.000	106470.000
13.627	99.600	25880.000	106810.000
13.942	100.300	25330.000	107050.000
14.260	101.300	26200.000	106660.000
14.576	102.500	25920.000	105010.000
14.893	103.600	26360.000	106970.000
15.210	104.800	25870.000	107540.000
15.526	106.000	26630.000	106250.000
15.842	107.200	26160.000	107080.000
16.159	108.500	26140.000	106830.000
16.474	109.700	25280.000	106890.000
16.791	110.400	25200.000	107040.000
17.108	111.600	24690.000	107150.000
17.424	112.300	24440.000	107040.000
17.740	113.900	23970.000	107320.000
18.057	115.000	23420.000	106360.000
18.372	115.700	23630.000	107780.000
18.688	116.700	23680.000	106670.000
19.004	117.700	22690.000	106410.000
19.319	118.700	22620.000	106770.000
19.635	119.700	22090.000	106620.000
19.949	120.700	22320.000	106950.000
20.264	121.600	22310.000	106560.000
20.579	122.200	22150.000	107960.000
20.894	123.500	22170.000	108040.000
21.209	124.400	22060.000	106400.000
21.524	125.000	21620.000	107280.000
21.839	125.900	21690.000	106500.000
22.154	126.800	22050.000	107240.000
22.471	127.700	22270.000	106290.000
22.787	128.700	22290.000	106890.000
23.102	129.600	22640.000	107860.000
23.417	130.200	22230.000	108290.000
23.732	131.000	22170.000	108440.000
24.047	132.000	21740.000	108950.000
24.362	132.900	22180.000	108690.000
24.678	133.800	21840.000	108690.000
24.996	134.800	22540.000	109200.000
25.313	135.700	21840.000	109020.000
25.629	136.700	21240.000	109680.000
25.944	137.600	21840.000	108070.000
26.259	138.200	21990.000	108430.000
26.574	139.200	22280.000	108870.000
26.889	140.200	22570.000	109770.000
27.206	141.200	23040.000	110090.000
27.522	142.200	22540.000	110710.000
27.840	142.800	23290.000	110650.000
28.155	143.800	23210.000	112180.000
28.472	145.200	23580.000	110200.000
28.788	145.900	23450.000	110180.000
29.102	146.800	24690.000	111230.000
29.418	147.800	25180.000	110200.000
29.734	148.800	27250.000	112250.000
30.051	149.800	28270.000	112460.000
30.366	150.800	29970.000	112720.000
30.682	151.800	32010.000	112550.000
30.997	152.500	33950.000	113290.000
31.313	153.400	38060.000	114740.000
31.629	154.500	42370.000	116140.000
31.944	155.400	47790.000	117790.000
32.260	156.400	53860.000	119650.000
32.577	157.300	60360.000	120610.000
32.894	158.300	67810.000	123250.000
33.211	159.300	78070.000	125660.000
33.526	160.300	89860.000	126550.000
33.842	160.900	101790.000	130260.000
34.158	161.900	118220.000	135380.000
34.474	162.900	128870.000	134340.000
34.790	163.800	138020.000	136460.000
35.107	164.800	137500.000	135490.000
35.423	165.800	124580.000	130250.000
35.740	166.700	99210.000	127740.000
36.057	167.300	81280.000	126500.000
36.374	168.300	74030.000	127510.000
36.690	169.200	71760.000	126900.000
37.006	170.200	70890.000	125200.000
37.322	171.200	70920.000	126010.000
37.639	172.100	72680.000	126700.000
37.955	173.100	75300.000	127270.000
38.270	174.100	76810.000	127300.000
38.586	174.700	78860.000	127420.000
38.904	175.700	79040.000	126930.000
39.221	176.700	75120.000	126880.000
39.539	177.600	67800.000	124510.000
39.855	178.600	60630.000	124350.000
40.171	179.600	55290.000	123400.000
40.488	180.500	51680.000	121480.000
40.804	181.500	49230.000	122970.000
41.122	182.500	46520.000	120690.000
41.440	183.100	44790.000	121110.000
41.755	184.100	44030.000	121080.000
42.072	185.100	42730.000	118520.000
42.388	186.000	40930.000	121320.000
42.705	187.000	40180.000	118440.000
43.022	188.000	38170.000	120280.000
43.339	189.000	37620.000	117760.000
43.656	189.900	36900.000	118820.000
43.973	190.600	36800.000	117400.000
44.289	191.600	35730.000	119180.000
44.606	192.600	35450.000	118490.000
44.923	193.500	35850.000	118390.000
45.241	194.500	35250.000	119190.000
45.558	195.500	34980.000	118070.000
45.876	196.400	34140.000	119100.000
46.192	197.400	34410.000	117650.000
46.508	198.400	33800.000	119810.000
46.825	199.100	34120.000	118910.000
47.142	200.000	33990.000	118630.000
47.463	201.000	33520.000	118710.000
47.780	202.000	33580.000	118360.000
48.096	203.000	32920.000	118070.000
48.413	204.000	33270.000	118070.000
48.730	204.900	32860.000	117720.000
49.046	205.900	32910.000	116520.000
49.362	206.900	32360.000	118390.000
49.678	207.500	32940.000	119840.000
49.996	208.500	32210.000	118900.000
50.314	209.500	32440.000	117790.000
50.630	210.500	32060.000	118120.000
50.947	211.400	31960.000	118800.000
51.264	212.400	31710.000	117530.000
51.581	213.100	32100.000	117690.000
51.898	214.000	31560.000	118580.000
52.216	215.000	31520.000	118100.000
52.533	215.900	31180.000	117990.000
52.849	216.900	30340.000	118040.000
53.167	217.900	31730.000	118010.000
53.484	218.900	31190.000	118510.000
53.802	219.900	30910.000	116860.000
54.119	220.800	30660.000	117590.000
54.437	221.500	30540.000	118060.000
54.754	222.500	30380.000	116000.000
55.071	223.500	30270.000	117980.000
55.387	224.400	29900.000	117240.000
55.704	225.400	30210.000	116440.000
56.021	226.400	30400.000	117540.000
56.337	227.400	30010.000	117340.000
56.653	228.400	30110.000	116660.000
56.969	229.300	29870.000	119910.000
57.285	230.000	30220.000	118630.000
57.601	231.000	30030.000	118030.000
57.917	231.900	29850.000	117440.000
58.234	232.900	28790.000	117770.000
58.552	233.900	29410.000	117130.000
58.869	234.900	29550.000	116740.000
59.186	235.500	29090.000	117230.000
59.502	236.800	29120.000	117460.000
59.819	237.800	28760.000	117890.000
60.135	238.400	28740.000	116770.000
60.453	239.400	28350.000	115690.000
60.769	240.400	28150.000	117470.000
61.085	241.400	28020.000	118580.000
61.399	242.400	28060.000	116830.000
61.714	243.300	27590.000	117200.000
62.029	244.300	27780.000	117440.000
62.346	245.300	27530.000	119070.000
62.660	245.900	27120.000	116410.000
62.975	246.900	27320.000	118760.000
63.290	247.900	27420.000	116840.000
63.605	248.800	26270.000	117090.000
63.920	249.800	26870.000	116520.000
64.234	250.800	26120.000	118230.000
64.550	251.400	26130.000	116900.000
64.865	252.400	25700.000	116950.000
65.181	253.400	26350.000	116410.000
65.496	254.400	25660.000	117460.000
65.811	255.400	25560.000	118630.000
66.126	256.300	25710.000	116530.000
66.441	257.300	25160.000	118550.000
66.756	257.900	25140.000	117160.000
67.071	258.900	24870.000	116480.000
67.387	259.900	25250.000	116260.000
67.701	260.900	24180.000	117100.000
68.016	261.800	23870.000	116650.000
68.331	262.800	24040.000	118040.000
68.646	263.800	24490.000	117210.000
68.961	264.800	24080.000	115960.000
69.276	265.800	23570.000	117310.000
69.592	266.400	23640.000	116340.000
69.907	267.400	23410.000	116420.000
70.222	268.400	23570.000	116780.000
70.538	269.400	23460.000	116310.000
70.854	270.300	23620.000	115320.000
71.169	271.000	23710.000	116110.000
71.487	272.300	22620.000	117150.000
71.803	273.200	22980.000	117010.000
72.118	273.900	23100.000	115230.000
72.434	274.900	22560.000	115790.000
72.749	275.800	22450.000	117310.000
73.064	276.800	22590.000	117360.000
73.381	277.800	23110.000	117760.000
73.698	278.400	22710.000	117800.000
74.016	279.700	22520.000	115910.000
74.331	280.700	22310.000	116650.000
74.648	281.400	21760.000	116500.000
74.963	282.300	22090.000	117210.000
75.280	283.300	22230.000	116560.000
75.596	284.300	22030.000	117850.000
75.914	285.300	22040.000	116940.000
76.231	286.300	21920.000	116520.000
76.547	287.300	21550.000	117810.000
76.865	288.300	21730.000	116340.000
77.183	289.000	21530.000	117250.000
77.499	289.900	21510.000	116430.000
77.815	290.900	22000.000	116580.000
78.131	291.900	21420.000	117380.000
78.447	292.900	20980.000	116460.000
78.763	293.900	21070.000	115300.000
79.079	294.800	21040.000	116690.000
79.396	295.800	20800.000	117110.000
79.715	296.500	20720.000	116610.000
80.033	297.400	21090.000	115960.000
80.349	298.400	20660.000	116590.000
80.665	299.400	20600.000	116140.000
80.982	300.300	20690.000	115920.000
81.298	301.300	21090.000	116620.000
81.615	302.000	21020.000	117650.000
81.932	302.900	21130.000	117010.000
82.249	303.900	20410.000	115760.000
82.567	304.900	19940.000	115450.000
82.883	305.900	20850.000	118190.000
83.202	306.900	20820.000	117640.000
83.518	307.800	20380.000	115530.000
83.835	308.800	20440.000	118000.000
84.151	309.800	20470.000	115980.000
84.467	310.400	20570.000	118870.000
84.786	311.400	20200.000	115930.000
85.103	312.400	20950.000	116370.000
85.420	313.400	20360.000	118700.000
85.738	314.400	20530.000	116800.000
86.055	315.300	20590.000	115920.000
86.372	316.300	20450.000	116910.000
86.691	317.300	20430.000	116120.000
87.007	317.900	20060.000	115080.000
87.323	318.900	20140.000	115790.000
87.641	319.900	20300.000	115230.000
87.957	320.900	20570.000	116040.000
88.273	321.800	19790.000	115520.000
88.590	322.800	19780.000	115280.000
88.907	323.800	19640.000	115740.000
89.225	324.800	20130.000	116390.000
89.543	325.700	20400.000	116550.000
89.859	326.700	20040.000	117830.000
90.177	327.700	20320.000	118420.000
90.494	328.400	19780.000	117650.000
90.811	329.300	19840.000	116860.000
91.128	330.300	19830.000	116970.000
91.445	331.300	19830.000	116690.000
91.762	332.300	20150.000	116090.000
92.080	333.000	19790.000	114020.000
92.396	334.300	19330.000	116350.000
92.713	335.200	19650.000	115770.000
93.030	335.900	19460.000	116910.000
93.346	336.900	19860.000	114790.000
93.663	337.800	19500.000	117820.000
93.979	338.800	19550.000	117130.000
94.296	339.800	19350.000	117750.000
94.612	340.800	19570.000	115640.000
94.930	341.700	19590.000	115260.000
95.248	342.400	19250.000	115760.000
95.564	343.400	19070.000	117780.000
95.881	344.400	19510.000	116480.000
96.199	345.300	19870.000	116390.000
96.514	346.300	19900.000	115760.000
96.831	347.300	19860.000	116230.000
97.147	348.300	19670.000	115660.000
97.464	348.900	19280.000	115990.000
97.781	350.200	18950.000	117410.000
98.097	351.200	19090.000	117890.000
98.413	351.900	19500.000	119780.000
98.728	352.800	19500.000	118840.000
99.043	353.800	19660.000	116910.000
99.360	354.800	19770.000	117770.000
99.677	355.800	19290.000	119380.000
99.993	356.700	19700.000	118820.000
100.309	357.700	19440.000	117180.000
100.625	358.700	19630.000	119460.000
100.940	359.300	19900.000	117800.000
101.255	360.300	19080.000	117220.000
101.570	361.300	18800.000	116530.000
101.885	362.300	19120.000	119420.000
102.201	363.300	19200.000	118110.000
102.516	364.200	18820.000	118270.000
102.831	365.200	19390.000	118060.000
103.146	365.900	19340.000	116990.000
103.461	366.900	19240.000	118340.000
103.776	367.800	18880.000	119210.000
104.093	368.800	19250.000	119760.000
104.408	369.800	19400.000	121900.000
104.725	370.500	19160.000	120510.000
105.041	371.700	19100.000	120080.000
105.357	372.400	18870.000	120670.000
105.672	373.400	18330.000	119870.000
105.989	374.300	18780.000	119990.000
106.304	375.400	18870.000	120590.000
106.619	376.300	19820.000	122020.000
106.934	377.300	18970.000	123650.000
107.249	378.300	18820.000	122600.000
107.565	378.900	19330.000	123560.000
107.881	379.900	19330.000	123240.000
108.198	380.900	18370.000	122590.000
108.512	381.900	19030.000	124610.000
108.827	382.800	18420.000	125150.000
109.142	383.800	19320.000	127740.000
109.457	384.800	18300.000	128470.000
109.773	385.800	18920.000	126950.000
110.090	386.400	19380.000	128250.000
110.405	387.400	18760.000	127430.000
110.721	388.400	19260.000	130360.000
111.038	389.400	19010.000	129390.000
111.353	390.300	18610.000	131080.000
111.669	391.300	18590.000	133910.000
111.984	392.300	18990.000	136050.000
112.300	392.900	18700.000	138020.000
112.615	394.200	18880.000	139500.000
112.933	394.900	19220.000	140760.000
113.249	395.900	18880.000	143270.000
113.564	396.800	19090.000	144850.000
113.881	397.800	18500.000	148890.000
114.196	398.100	18630.000	149960.000
114.513	399.700	18800.000	152540.000
114.830	400.700	19020.000	156320.000
115.148	401.400	18750.000	159080.000
115.465	402.400	18740.000	162860.000
115.781	403.300	18210.000	165710.000
116.099	404.300	18170.000	168480.000
116.413	405.300	18490.000	171770.000
116.730	406.300	18450.000	176570.000
117.046	407.200	18380.000	182240.000
117.362	408.200	18860.000	184930.000
117.678	408.800	19300.000	192620.000
117.995	409.800	18600.000	197200.000
118.311	410.800	18710.000	202970.000
118.627	411.800	18870.000	212790.000
118.944	412.700	18570.000	219570.000
119.260	413.700	19140.000	227390.000
119.576	414.700	19250.000	239900.000
119.893	415.600	19190.000	250860.000
120.210	416.300	19280.000	263600.000
120.526	417.300	19390.000	284630.000
120.841	418.200	19320.000	303720.000
121.157	419.200	19170.000	333570.000
121.474	420.200	19580.000	374080.000
121.791	421.200	19690.000	427870.000
122.108	422.100	19250.000	505920.000
122.424	423.100	19160.000	628920.000
122.741	423.800	19690.000	867240.000
123.057	424.700	20560.000	1342250.000
123.373	425.700	20890.000	1647270.000
123.690	426.700	21500.000	1529940.000
124.007	427.600	21250.000	1307050.000
124.324	428.600	20970.000	1005800.000
124.643	429.600	20330.000	802460.000
124.960	430.500	19820.000	597640.000
125.278	431.500	19580.000	467280.000
125.595	432.500	19630.000	385030.000
125.913	433.200	19540.000	338060.000
126.230	434.100	19190.000	308390.000
126.546	435.100	19240.000	278600.000
126.863	436.100	18570.000	268220.000
127.181	437.000	18920.000	257600.000
127.499	438.000	19180.000	250990.000
127.816	439.000	19360.000	243470.000
128.134	439.900	19440.000	235260.000
128.450	440.600	18800.000	228830.000
128.767	441.600	18480.000	224060.000
129.085	442.600	19140.000	217390.000
129.401	443.500	18490.000	214860.000
129.718	444.500	18120.000	213730.000
130.034	445.500	18750.000	210670.000
130.351	446.500	18540.000	207370.000
130.668	446.800	18300.000	206920.000
130.986	448.100	18670.000	203950.000
131.304	449.000	18820.000	201040.000
131.621	450.000	18500.000	199320.000
131.938	451.000	18140.000	197780.000
132.256	452.000	18250.000	194440.000
132.574	452.900	18300.000	192270.000
132.892	453.900	18450.000	191620.000
133.207	454.900	18280.000	188830.000
133.524	455.900	17700.000	190280.000
133.842	456.500	18140.000	186190.000
134.158	457.500	17960.000	184610.000
134.475	458.500	18050.000	184730.000
134.792	459.500	18340.000	183580.000
135.109	460.500	18380.000	180250.000
135.426	461.100	18330.000	181570.000
135.744	462.400	18190.000	179250.000
136.059	463.400	17930.000	179210.000
136.375	464.300	18230.000	180510.000
136.691	465.000	18210.000	178430.000
137.008	466.000	18080.000	177330.000
137.325	466.900	17450.000	176680.000
137.641	467.900	18170.000	175810.000
137.958	468.900	18130.000	175220.000
138.275	469.900	17290.000	175800.000
138.590	470.800	17850.000	172680.000
138.907	471.500	17430.000	172750.000
139.223	472.500	17780.000	172250.000
139.539	473.400	18100.000	174070.000
139.855	474.400	17840.000	172910.000
140.169	475.400	17890.000	171190.000
140.487	476.000	18230.000	171090.000
140.802	477.300	18000.000	170980.000
141.118	478.000	17970.000	168550.000
141.433	479.000	18230.000	168880.000
141.750	480.000	17910.000	168480.000
142.064	480.900	18320.000	167530.000
142.380	481.900	17820.000	166920.000
142.698	482.900	17620.000	166520.000
143.012	483.500	17980.000	164660.000
143.327	484.800	17730.000	164850.000
143.644	485.800	17800.000	164130.000
143.961	486.800	17630.000	162400.000
144.276	487.400	17400.000	161070.000
144.592	488.400	17830.000	158750.000
144.909	489.400	17550.000	162170.000
145.225	490.300	17940.000	161260.000
145.541	491.000	17710.000	158490.000
145.855	492.300	17880.000	159710.000
146.173	493.200	18020.000	158460.000
146.487	493.900	17770.000	157940.000
146.803	494.800	17870.000	158040.000
147.119	495.800	18140.000	155780.000
147.434	496.800	17710.000	156730.000
147.752	497.800	17520.000	154110.000
148.066	498.800	17360.000	153650.000
148.383	499.700	17270.000	154990.000
148.698	500.400	17350.000	151440.000
149.014	501.400	17770.000	154360.000
149.330	502.000	17420.000	154080.000
149.645	503.300	17480.000	152890.000
149.962	504.300	17700.000	153530.000
150.278	505.300	17300.000	151450.000
150.594	506.200	17930.000	150880.000
150.910	506.900	17010.000	149940.000
151.226	507.800	17560.000	148790.000
151.542	508.800	17410.000	148940.000
151.858	509.800	17500.000	149180.000
152.174	510.800	17670.000	152400.000
152.489	511.700	17970.000	148710.000
152.806	512.700	17680.000	147370.000
153.124	513.300	17490.000	148250.000
153.438	514.700	17050.000	146400.000
153.756	515.600	17590.000	146160.000
154.073	516.300	17520.000	147210.000
154.389	517.300	17070.000	145470.000
154.703	518.200	17860.000	146860.000
155.021	519.200	17300.000	146350.000
155.336	520.200	17330.000	143480.000
155.651	521.200	17560.000	143410.000
155.969	522.100	17090.000	145000.000
156.285	522.800	17150.000	143290.000
156.602	523.800	17270.000	142270.000
156.917	524.700	17240.000	143230.000
157.233	525.700	17120.000	142570.000
157.549	526.700	17330.000	141700.000
157.865	527.300	17750.000	142000.000
158.182	528.600	17360.000	140100.000
158.499	529.600	17180.000	139220.000
158.815	530.500	17730.000	141940.000
159.131	531.200	17590.000	140310.000
159.448	532.100	17240.000	139440.000
159.766	533.100	17520.000	139370.000
160.082	534.100	16900.000	138100.000
160.400	535.100	16910.000	141050.000
160.716	536.000	17140.000	140000.000
161.033	537.000	17350.000	139610.000
161.351	537.600	16840.000	140170.000
161.667	538.600	17340.000	139400.000
161.984	539.600	16570.000	137830.000
162.300	540.600	16960.000	138530.000
162.617	541.500	17100.000	137690.000
162.932	542.500	17340.000	138920.000
163.248	543.500	17200.000	137420.000
163.566	544.400	16940.000	136100.000
163.934	545.400	17220.000	139250.000
164.251	546.400	16970.000	137850.000
164.568	547.400	16610.000	138060.000
164.885	548.300	17100.000	137470.000
165.203	549.000	16970.000	137390.000
165.520	549.900	17230.000	136670.000
165.839	550.900	17370.000	138250.000
166.156	551.900	17020.000	138690.000
166.474	552.800	16860.000	136130.000
166.791	553.800	16740.000	134890.000
167.108	554.800	16600.000	133790.000
167.427	555.700	17310.000	136880.000
167.743	556.700	17100.000	135620.000
168.060	557.400	17090.000	135240.000
168.377	558.300	17160.000	133880.000
168.694	559.300	16870.000	135670.000
169.009	560.300	17220.000	137010.000
169.326	561.200	17060.000	135830.000
169.643	562.200	17070.000	134590.000
169.960	563.200	16900.000	135130.000
170.277	563.800	17220.000	136210.000
170.593	565.100	17500.000	136300.000
170.915	565.800	17120.000	137590.000
171.234	566.700	16980.000	137440.000
171.551	567.700	17140.000	135010.000
171.867	568.700	17500.000	135870.000
172.184	569.700	17000.000	136540.000
172.503	570.600	17200.000	133440.000
172.820	571.600	16760.000	133610.000
173.137	572.200	17110.000	135220.000
173.453	573.500	16580.000	133920.000
173.771	574.200	17140.000	135900.000
174.086	575.100	16450.000	137700.000
174.403	576.100	16520.000	137430.000
174.720	577.100	17060.000	136030.000
175.038	578.000	17200.000	134550.000
175.355	579.000	17270.000	136330.000
175.672	580.000	16910.000	136810.000
175.988	581.000	16890.000	136180.000
176.305	581.600	16740.000	136140.000
176.621	582.500	16620.000	136440.000
176.956	583.500	17110.000	135590.000
177.273	584.500	16680.000	136510.000
177.589	585.400	17020.000	137320.000
177.908	586.400	16980.000	134910.000
178.225	587.400	17320.000	135490.000
178.540	588.400	17010.000	135930.000
178.855	589.300	16670.000	135410.000
179.171	590.300	17280.000	137340.000
179.488	590.900	16520.000	135080.000
179.804	591.900	16550.000	135660.000
180.119	592.900	16980.000	135490.000
180.434	593.900	16930.000	135090.000
180.751	594.800	16710.000	136210.000
181.066	595.500	16890.000	134990.000
181.381	596.800	17010.000	136130.000
181.696	597.400	16890.000	136180.000
182.011	598.400	16840.000	136130.000
182.327	599.300	17230.000	136340.000
182.643	600.300	16110.000	135880.000
182.958	601.300	17160.000	136240.000
183.273	602.200	17150.000	135020.000
