Mon, Oct 09, 2017	10:31 AM
 Notes: GUA_ leaking in_100917
 waiting time: 50.000
 time(s)	 temp (K)	 MS1=1.994	 MS2=17.798	 MS3=26.922	 MS4=27.907	 MS5=28.936	 MS6=30.937	 MS7=78.871	 MS8=125.586
0.000	301.000	2439.869	3430.612	864.969	8694.522	1191.697	293.943	129.566	311.048
1.567	301.000	2250.287	3362.994	870.280	8731.305	1192.626	291.039	128.127	313.340
2.574	301.000	2243.345	3382.952	872.967	8749.455	1203.975	295.280	128.904	309.583
3.564	301.000	2253.369	3380.163	875.107	8782.302	1199.772	298.133	129.273	309.634
4.533	301.000	2244.835	3366.063	882.214	8750.512	1191.735	291.268	128.700	309.316
5.516	301.000	2242.989	3378.188	878.813	8783.550	1201.478	295.242	128.853	309.901
6.465	301.000	2239.588	3382.188	878.342	8800.770	1198.549	295.000	129.464	311.035
7.447	301.000	2225.285	3378.520	887.665	8819.887	1194.244	293.790	129.451	306.883
8.427	301.000	2218.802	3387.448	888.849	8814.653	1185.965	293.777	129.451	306.743
9.385	301.000	2217.401	3388.594	884.430	8877.201	1189.379	295.980	129.171	309.099
10.365	301.000	2229.781	3394.924	885.296	8901.579	1199.160	294.172	128.050	311.099
11.346	301.000	2236.378	3389.256	876.100	8908.342	1192.601	289.268	128.942	306.755
12.351	301.000	2222.547	3386.340	881.768	8911.157	1190.665	290.440	129.197	306.539
13.308	301.000	2224.126	3395.102	873.362	8929.370	1188.640	291.446	129.044	301.916
14.266	301.000	2232.914	3397.153	875.718	8872.183	1205.478	289.574	128.331	304.769
15.252	301.000	2246.377	3388.543	863.835	8875.800	1204.853	288.390	128.458	306.921
16.249	301.000	2247.396	3386.964	865.389	8886.537	1202.421	292.210	128.394	301.253
17.248	301.000	2255.929	3398.376	863.071	8925.167	1193.862	289.243	128.802	301.967
18.233	301.000	2249.650	3371.311	862.383	8919.830	1198.294	288.415	128.050	301.470
19.225	301.000	2254.808	3411.112	856.805	8869.750	1194.422	291.777	129.604	300.260
20.206	301.000	2251.573	3380.812	856.881	8894.141	1201.147	292.644	128.025	304.883
21.185	301.000	2281.376	3391.307	856.575	8829.172	1194.410	289.039	127.401	302.935
22.141	301.000	2260.565	3391.791	853.633	8784.353	1198.090	294.401	128.725	302.947
23.097	301.000	2280.892	3386.429	855.225	8799.687	1194.550	291.446	129.413	299.954
24.089	301.000	2275.874	3381.054	856.219	8824.803	1182.310	292.198	129.541	301.483
25.047	301.000	2257.343	3371.706	859.199	8747.990	1179.979	291.001	128.394	302.744
25.998	301.000	2239.486	3380.443	865.147	8756.638	1185.303	294.567	126.930	303.024
26.950	301.000	2221.591	3376.940	865.427	8739.406	1177.827	291.701	128.687	301.495
27.933	301.000	2224.521	3366.420	863.045	8768.980	1183.507	290.682	127.031	299.203
28.910	301.000	2223.298	3378.876	864.255	8828.803	1171.688	288.033	127.401	297.012
29.867	301.000	2222.241	3354.180	858.753	8875.787	1170.019	287.651	128.305	296.057
30.835	301.000	2204.423	3348.729	855.340	8885.047	1177.063	287.383	127.757	293.752
31.786	301.000	2239.601	3358.243	863.873	8869.929	1174.834	288.644	127.337	294.656
32.779	301.000	2233.373	3377.119	858.460	8828.370	1180.132	287.154	127.579	296.630
33.752	301.000	2251.216	3344.424	840.795	8860.848	1183.023	285.740	127.579	294.592
34.739	301.000	2267.850	3373.680	843.928	8844.290	1185.023	286.237	126.598	291.981
35.696	301.000	2270.869	3355.046	841.470	8836.024	1185.494	291.051	128.827	293.611
36.652	301.000	2265.086	3343.405	839.865	8788.033	1174.910	288.835	127.847	293.892
37.609	301.000	2260.208	3356.065	845.902	8750.461	1172.719	289.676	127.554	296.732
38.567	301.000	2265.086	3359.046	848.462	8780.583	1177.228	290.185	128.967	303.724
39.524	301.000	2257.890	3393.969	873.833	8835.973	1169.752	295.331	129.069	315.938
40.479	301.000	2247.956	3447.003	929.377	9016.321	1228.836	304.488	130.801	369.508
41.435	301.000	2305.295	3597.765	1057.149	9355.990	1295.448	324.981	134.406	448.971
42.406	301.000	2360.215	3886.564	1247.572	9679.572	1388.933	354.199	139.297	545.118
43.386	301.000	2424.012	4253.628	1451.520	9945.713	1475.656	376.691	144.391	647.086
44.361	301.000	2495.654	4640.294	1654.004	10146.478	1581.738	402.635	148.620	762.784
45.320	301.000	2571.182	4947.090	1878.179	10372.155	1677.236	424.364	153.740	881.832
46.282	301.000	2648.212	5177.225	2089.871	10491.075	1792.526	454.842	162.248	1006.356
47.370	301.000	2710.404	5455.707	2360.521	10817.599	1900.773	476.329	167.610	1179.304
48.330	301.000	2783.116	5606.825	2645.359	11099.635	2021.489	508.463	175.850	1351.157
49.362	301.000	2837.755	5818.135	2967.349	11392.395	2141.021	541.514	183.199	1562.073
50.323	301.000	2931.789	5974.437	3258.835	11683.359	2278.816	575.482	192.140	1770.938
51.284	301.000	3006.564	6154.416	3571.948	12025.448	2425.973	613.105	199.451	1973.638
52.239	301.000	3149.989	6300.070	3846.202	12377.661	2587.522	649.774	213.830	2227.692
53.198	301.000	3210.004	6451.990	4198.581	12750.177	2731.775	686.149	223.930	2492.521
54.219	301.000	3270.858	6558.225	4585.591	13105.040	2879.072	723.823	237.342	2794.923
55.199	301.000	3380.290	6672.955	4988.840	13528.960	3026.026	765.013	247.429	3140.475
56.179	301.000	3476.386	6815.196	5350.670	13797.648	3185.295	816.163	259.070	3453.041
57.176	301.000	3566.637	6914.387	5721.147	14240.202	3342.692	858.537	269.960	3787.818
58.181	301.000	3617.302	7054.042	6139.145	14645.157	3509.361	906.235	287.205	4206.987
59.139	301.000	3729.078	7166.339	6594.740	14975.604	3658.734	954.570	298.107	4574.026
60.119	301.000	3773.286	7254.246	7013.286	15329.321	3796.364	992.308	314.155	5041.250
61.078	301.000	3886.882	7352.585	7401.391	15716.152	3928.836	1048.615	327.389	5469.322
62.036	301.000	3984.201	7413.465	7833.207	16057.922	4083.469	1099.854	339.717	5916.474
63.026	301.000	4022.895	7515.356	8252.797	16484.224	4228.219	1132.256	354.313	6303.942
63.985	301.000	4013.928	7012.789	8695.592	16443.862	4291.672	1143.400	359.191	6394.727
64.945	301.000	3949.673	6358.377	8660.847	16528.636	4250.100	1109.407	356.428	6089.358
65.929	301.000	3837.006	5979.443	8343.837	16433.074	4152.310	1077.782	345.996	5686.568
66.909	301.000	3783.386	5699.062	7978.683	16318.968	4036.701	1032.007	328.968	5313.683
67.915	301.000	3680.564	5499.966	7568.786	16121.821	3925.474	997.682	318.524	4925.221
68.912	301.000	3650.468	5339.538	7183.215	15938.709	3808.273	955.041	306.845	4583.795
69.871	301.000	3640.470	5234.704	6856.220	15798.226	3713.666	925.900	304.488	4300.346
70.834	301.000	3588.722	5086.949	6601.707	15576.166	3623.059	891.537	290.529	4023.481
71.795	301.000	3527.714	5005.550	6315.150	15418.438	3549.978	867.503	285.931	3813.851
72.753	301.000	3535.917	4949.522	5966.541	15167.682	3486.499	841.292	279.665	3624.027
73.724	301.000	3493.721	4857.272	5725.096	14904.407	3413.252	821.499	272.877	3428.026
74.682	301.000	3487.276	4801.563	5516.383	14758.180	3339.393	803.464	265.031	3268.579
75.644	301.000	3454.976	4739.982	5326.623	14439.400	3259.026	789.951	262.165	3113.334
76.622	301.000	3393.561	4681.013	5135.156	14369.629	3205.227	771.700	256.077	2973.755
77.579	301.000	3376.151	4593.398	4999.322	14159.733	3133.241	752.799	249.059	2850.696
78.539	301.000	3348.805	4579.299	4850.980	14039.437	3051.397	739.858	246.397	2748.817
79.499	301.000	3289.454	4535.358	4751.967	13899.412	2998.477	726.893	240.781	2633.883
80.459	301.000	3249.143	4509.669	4593.513	13743.034	2956.930	709.711	240.169	2510.887
81.419	301.000	3219.951	4467.601	4462.595	13690.598	2910.366	691.142	233.266	2403.595
82.379	301.000	3195.293	4424.832	4325.538	13662.833	2875.672	674.724	230.821	2316.223
83.338	301.000	3158.192	4417.623	4216.654	13581.421	2835.195	666.267	226.452	2214.816
84.319	301.000	3148.066	4364.830	4149.546	13481.033	2785.192	651.735	223.255	2160.839
85.310	301.000	3123.765	4348.235	3988.201	13375.779	2740.436	643.494	219.422	2072.053
86.294	301.000	3111.500	4311.923	3904.446	13230.647	2723.509	635.178	218.466	2013.542
87.252	301.000	3157.861	4294.156	3762.396	13185.827	2721.370	625.562	215.613	1955.616
88.210	301.000	3170.304	4246.381	3679.788	13116.961	2674.168	615.181	212.811	1891.781
89.168	301.000	3159.924	4242.560	3580.545	12969.932	2644.964	611.067	211.780	1857.635
90.125	301.000	3097.936	4215.839	3495.440	12822.609	2610.397	605.922	209.398	1799.353
91.083	301.000	3095.630	4190.175	3439.234	12756.189	2563.387	598.802	204.635	1750.394
92.030	301.000	3067.763	4159.264	3395.650	12708.936	2521.318	590.791	203.488	1715.942
92.976	301.000	3000.400	4159.366	3357.313	12555.577	2463.278	585.047	203.132	1670.536
93.933	301.000	3007.150	4145.101	3260.631	12508.770	2458.731	571.062	202.979	1625.042
94.891	301.000	2988.848	4134.721	3194.300	12556.074	2434.430	559.791	200.635	1574.478
95.852	301.000	2991.866	4109.808	3132.770	12540.815	2406.678	555.218	196.509	1538.357
96.812	301.000	2973.500	4095.760	3077.837	12439.879	2399.889	549.652	195.248	1495.970
97.770	301.000	2979.308	4074.528	2996.184	12403.962	2389.101	544.520	196.203	1459.430
98.726	301.000	3005.074	4057.067	2937.049	12379.508	2362.355	545.016	192.229	1428.200
99.723	301.000	2986.988	4043.961	2879.595	12288.188	2339.200	534.878	191.745	1399.021
100.716	301.000	2962.140	4017.265	2856.338	12214.316	2328.463	529.949	187.568	1370.504
101.674	301.000	2993.599	3991.525	2796.859	12109.126	2313.307	528.026	188.294	1351.272
102.631	301.000	2965.604	3998.721	2751.695	12013.972	2290.152	528.943	186.842	1319.622
103.589	301.000	2939.150	3964.485	2703.386	12002.433	2265.010	519.964	187.211	1294.505
104.547	301.000	2922.211	3965.453	2684.740	11964.338	2227.603	517.276	186.205	1267.198
105.505	301.000	2894.254	3958.703	2674.869	11872.954	2203.493	507.622	185.606	1251.150
106.466	301.000	2875.366	3952.921	2639.411	11837.725	2191.890	505.826	182.397	1220.812
107.425	301.000	2861.865	3947.444	2587.115	11792.154	2159.170	496.809	179.964	1185.023
108.384	301.000	2867.215	3912.177	2562.368	11844.998	2159.934	497.777	181.263	1164.479
109.338	301.000	2865.801	3922.315	2504.443	11814.163	2152.407	493.790	179.378	1141.184
110.299	301.000	2849.779	3904.739	2475.225	11826.122	2132.755	488.657	177.926	1120.602
111.258	301.000	2874.717	3881.673	2416.255	11775.890	2129.571	478.838	177.850	1093.601
112.218	301.000	2879.658	3871.255	2377.613	11703.636	2108.823	482.366	176.767	1085.908
113.174	301.000	2867.673	3886.398	2353.910	11672.992	2111.243	476.023	177.048	1077.604
114.128	301.000	2867.062	3864.683	2309.651	11492.899	2089.693	481.742	174.615	1065.606
