Mon, Jul 24, 2017	11:47 AM
 Notes: HOAc_3.5E-09_15 s_724
 waiting time: 50.000
 time(ms)	 temp (K)	 MS1=1.538	 MS2=17.903	 MS3=28.250	 MS4=44.784	 MS5=61.297	 MS6=31.397	 MS7=68.640	 MS8=90.000
0.000	94.700	562510.000	98730.000	102600.000	31470.000	9930.000
0.790	94.800	543330.000	99740.000	103890.000	31850.000	10500.000
1.577	94.800	542960.000	101480.000	106190.000	32610.000	10590.000
2.364	94.700	541850.000	100490.000	106130.000	32980.000	10510.000
3.173	94.700	542120.000	102540.000	105670.000	32850.000	10510.000
3.962	94.700	540710.000	103800.000	105890.000	33340.000	10630.000
4.751	94.700	545560.000	104210.000	105890.000	33360.000	10550.000
5.540	94.700	543930.000	103180.000	106970.000	33030.000	10330.000
6.330	94.700	547720.000	104390.000	106350.000	33520.000	10460.000
7.118	94.700	547210.000	105900.000	109610.000	34000.000	10190.000
7.910	94.800	543740.000	105470.000	121750.000	34800.000	10600.000
8.699	95.100	545950.000	114860.000	136470.000	35240.000	11900.000
9.487	95.700	559290.000	118740.000	133500.000	35330.000	12050.000
10.275	96.600	575930.000	113820.000	135840.000	35290.000	11250.000
11.064	97.900	576140.000	111930.000	157910.000	37290.000	11260.000
11.854	99.600	575290.000	111510.000	173640.000	38420.000	10660.000
12.646	101.700	581230.000	111340.000	179140.000	37270.000	10810.000
13.436	104.000	596120.000	112950.000	183710.000	37790.000	10990.000
14.226	106.600	590440.000	117130.000	186390.000	37050.000	10770.000
15.018	109.600	589190.000	117570.000	187960.000	37050.000	10630.000
15.809	112.300	598720.000	117330.000	184630.000	36700.000	10950.000
16.601	115.000	586830.000	116240.000	180980.000	36430.000	11180.000
17.390	117.700	589200.000	115350.000	176940.000	35550.000	11160.000
18.180	120.500	584310.000	115640.000	171920.000	36610.000	10820.000
18.970	123.000	570370.000	116970.000	169890.000	35890.000	10550.000
19.759	125.300	570670.000	116330.000	163600.000	36930.000	10200.000
20.551	127.600	565780.000	117300.000	162070.000	36700.000	10590.000
21.341	129.800	569860.000	115500.000	158130.000	37180.000	10400.000
22.131	132.300	566740.000	117520.000	157320.000	37790.000	10140.000
22.932	134.400	568490.000	116740.000	154250.000	36800.000	10630.000
23.725	136.500	557120.000	118360.000	152100.000	36810.000	10470.000
24.514	138.700	557400.000	119810.000	150870.000	37760.000	11150.000
25.307	140.900	562930.000	120260.000	150370.000	38080.000	10850.000
26.100	143.100	559200.000	121740.000	150520.000	37830.000	10880.000
26.892	145.700	559700.000	121740.000	149160.000	38580.000	11680.000
27.683	147.900	558750.000	123010.000	147980.000	39240.000	12630.000
28.474	150.200	556250.000	124980.000	148710.000	39050.000	13940.000
29.267	152.400	552210.000	125760.000	146960.000	39260.000	15950.000
30.061	154.700	556090.000	129010.000	149210.000	40650.000	18490.000
30.852	157.000	558490.000	130150.000	148850.000	41570.000	20930.000
31.642	159.600	563760.000	133230.000	148970.000	42460.000	22270.000
32.432	161.900	570390.000	133880.000	147950.000	41930.000	19170.000
33.222	164.100	565350.000	134190.000	145050.000	41340.000	15040.000
34.012	166.700	562240.000	134110.000	143160.000	41070.000	14030.000
34.801	169.000	557440.000	133090.000	141700.000	40790.000	13510.000
35.593	171.300	552440.000	134710.000	141260.000	41040.000	13240.000
36.380	173.500	558450.000	135040.000	139160.000	41040.000	12790.000
37.167	175.800	550400.000	135720.000	138440.000	41760.000	13070.000
37.953	178.000	550580.000	136870.000	139760.000	41560.000	12420.000
38.740	180.400	552850.000	138510.000	138650.000	42410.000	12520.000
39.536	182.900	553920.000	140600.000	138360.000	41750.000	12380.000
40.327	185.200	547670.000	140770.000	136300.000	42020.000	12610.000
41.116	187.400	551610.000	142920.000	137610.000	41710.000	12380.000
41.908	189.700	556550.000	145090.000	138680.000	42710.000	12570.000
42.696	192.000	565870.000	145420.000	136840.000	42420.000	12650.000
43.483	194.600	566890.000	147190.000	137990.000	42610.000	12320.000
44.274	196.900	573550.000	148620.000	137830.000	42720.000	12780.000
45.063	199.200	568330.000	147000.000	136970.000	43240.000	12660.000
45.853	201.400	576960.000	147940.000	138090.000	43260.000	12510.000
46.643	203.800	585720.000	149090.000	138500.000	43200.000	12560.000
47.433	206.000	587730.000	149580.000	136870.000	43520.000	12780.000
48.222	208.600	594320.000	150560.000	136360.000	43140.000	13180.000
49.011	210.900	617300.000	151080.000	136360.000	43660.000	13020.000
49.799	213.200	631250.000	152780.000	136280.000	43150.000	12640.000
50.589	215.400	647970.000	153920.000	135310.000	44130.000	12840.000
51.379	217.700	670190.000	152900.000	136970.000	44680.000	13070.000
52.170	220.300	696550.000	155880.000	137370.000	44030.000	13250.000
52.958	222.600	729000.000	156300.000	137540.000	44790.000	12580.000
53.750	224.800	764770.000	155270.000	138450.000	44540.000	12680.000
54.540	227.100	790760.000	158830.000	137960.000	44380.000	13140.000
55.333	229.400	825130.000	156600.000	138490.000	45490.000	12580.000
56.124	232.000	866300.000	159650.000	137170.000	45760.000	13020.000
56.917	234.000	899690.000	160330.000	135510.000	45720.000	12350.000
57.704	236.600	935700.000	161920.000	138290.000	45660.000	12180.000
58.497	238.800	983010.000	160280.000	135790.000	45230.000	12240.000
59.292	241.100	1018450.000	162180.000	136840.000	45720.000	11820.000
60.083	243.700	1053010.000	162500.000	137600.000	46690.000	12070.000
60.877	246.000	1094750.000	162140.000	136260.000	46320.000	11550.000
61.668	248.300	1144590.000	163120.000	136890.000	46400.000	11240.000
62.459	250.600	1174620.000	163900.000	136600.000	46930.000	11220.000
63.249	252.800	1217280.000	163860.000	135180.000	46190.000	11050.000
64.042	255.100	1266240.000	161900.000	136510.000	46170.000	10730.000
64.833	257.700	1294160.000	163180.000	137660.000	46090.000	10870.000
65.626	260.000	1328820.000	163730.000	136910.000	47280.000	10580.000
66.418	262.300	1341640.000	162070.000	135990.000	47030.000	10320.000
67.209	264.600	1349460.000	162790.000	135930.000	46440.000	10200.000
68.001	266.900	1336080.000	160340.000	137110.000	46530.000	10120.000
68.794	269.500	1324560.000	161410.000	136490.000	47500.000	10120.000
69.584	271.700	1269820.000	162980.000	136360.000	47720.000	10100.000
70.374	274.000	1193100.000	161860.000	137700.000	46900.000	10250.000
71.164	276.300	1140990.000	161860.000	137780.000	47860.000	10220.000
71.957	278.900	1071490.000	164300.000	138960.000	47900.000	10110.000
72.744	281.100	1028120.000	162200.000	138460.000	47700.000	9990.000
73.534	283.500	980180.000	164970.000	138300.000	48240.000	9570.000
74.326	285.700	933820.000	164620.000	137120.000	47090.000	9820.000
75.115	288.000	909800.000	165440.000	138750.000	48120.000	9810.000
75.904	290.300	881060.000	167790.000	138160.000	48660.000	9870.000
76.693	292.600	858360.000	167420.000	139630.000	48280.000	9610.000
77.487	295.200	842420.000	178570.000	138730.000	47490.000	9810.000
78.332	297.500	815790.000	174220.000	139750.000	48720.000	9850.000
79.150	300.100	791490.000	188250.000	137880.000	52720.000	10550.000
80.052	302.700	776230.000	179930.000	137740.000	48450.000	9550.000
80.844	305.000	769640.000	177710.000	138290.000	49880.000	10490.000
81.673	307.200	752030.000	180980.000	140340.000	49200.000	9850.000
82.474	309.800	761730.000	183690.000	140620.000	49990.000	9650.000
83.261	312.100	752440.000	183680.000	138880.000	49740.000	9560.000
84.052	314.400	746410.000	182430.000	139640.000	49220.000	9920.000
84.841	316.700	744940.000	182720.000	141430.000	49420.000	9690.000
85.632	319.000	738080.000	181100.000	140850.000	53760.000	9300.000
86.500	321.900	732980.000	178450.000	139600.000	50020.000	9340.000
87.294	324.200	717860.000	174010.000	139060.000	49660.000	9470.000
88.084	326.500	734090.000	171130.000	139680.000	51020.000	9660.000
88.875	328.400	720690.000	171460.000	139390.000	50190.000	9580.000
89.682	331.300	722170.000	171320.000	138690.000	50280.000	9640.000
90.470	333.600	722010.000	170940.000	139990.000	50300.000	9350.000
91.260	335.900	706150.000	171470.000	141950.000	51490.000	9250.000
92.049	338.200	713110.000	171450.000	140060.000	50620.000	9150.000
92.838	340.400	710310.000	170380.000	139330.000	50460.000	9990.000
93.629	342.700	717010.000	173290.000	140830.000	51320.000	9380.000
94.418	345.000	726400.000	172230.000	140560.000	52270.000	9160.000
95.210	347.000	729500.000	172820.000	140760.000	52020.000	9340.000
96.018	350.000	724750.000	174340.000	140720.000	53000.000	9330.000
96.810	352.200	731450.000	177100.000	141050.000	53360.000	9380.000
97.599	354.800	733330.000	174330.000	141330.000	53450.000	8990.000
98.387	356.800	741340.000	174700.000	140970.000	54870.000	9250.000
99.178	359.400	755210.000	177740.000	143680.000	55980.000	9470.000
99.970	361.600	751270.000	177210.000	144680.000	57820.000	9140.000
100.760	363.900	751630.000	176050.000	144140.000	57420.000	9520.000
101.551	366.200	760630.000	177190.000	145360.000	59240.000	9280.000
102.343	368.800	759580.000	179200.000	147570.000	61340.000	9490.000
103.134	371.100	762380.000	179470.000	148490.000	63980.000	9240.000
103.925	373.400	768080.000	179010.000	147240.000	66540.000	9360.000
104.719	375.700	781030.000	178760.000	149540.000	70390.000	9060.000
105.508	377.900	784830.000	180060.000	153950.000	74420.000	9010.000
106.299	380.500	801260.000	182960.000	154530.000	78890.000	9410.000
107.135	382.800	813330.000	181460.000	157540.000	84310.000	8980.000
107.926	385.100	829190.000	181750.000	161330.000	92750.000	9060.000
108.717	387.400	852990.000	184640.000	166710.000	103390.000	8760.000
109.506	390.000	883570.000	184810.000	170790.000	116220.000	9250.000
110.298	392.200	924850.000	184080.000	176300.000	132780.000	9370.000
111.089	394.500	967660.000	184760.000	184090.000	154510.000	9230.000
111.924	397.100	1026690.000	185300.000	192480.000	174180.000	9050.000
112.713	399.400	1087870.000	188770.000	202930.000	195030.000	9440.000
113.504	401.700	1136760.000	183520.000	216030.000	215770.000	9160.000
114.294	404.000	1197200.000	185640.000	229170.000	232630.000	9370.000
115.085	406.600	1259430.000	187320.000	247580.000	241130.000	9310.000
115.874	408.500	1292270.000	188710.000	267180.000	254950.000	9120.000
116.661	411.100	1353940.000	187640.000	290350.000	277400.000	9260.000
117.450	413.400	1419510.000	190370.000	316400.000	303010.000	9640.000
118.238	415.600	1520640.000	190670.000	344940.000	339730.000	9400.000
119.026	417.900	1654820.000	192540.000	378420.000	412130.000	9530.000
119.816	420.500	1880380.000	193310.000	417160.000	519710.000	10270.000
120.604	422.700	2029080.000	194650.000	460820.000	737350.000	10070.000
121.391	425.000	2047000.000	198700.000	510850.000	1238240.000	10920.000
122.178	427.200	2047000.000	197570.000	558100.000	1020240.000	10450.000
122.966	429.500	2047000.000	197280.000	533290.000	490410.000	9580.000
123.752	431.800	2013700.000	196780.000	511760.000	224480.000	8860.000
124.542	434.100	1440920.000	195890.000	481150.000	157630.000	8990.000
125.330	436.300	1216670.000	196850.000	455750.000	135650.000	9280.000
126.120	438.900	1126130.000	196130.000	435070.000	124300.000	8900.000
126.907	441.200	1058000.000	196880.000	410480.000	117230.000	9210.000
127.697	443.500	1007240.000	195560.000	384870.000	111900.000	9040.000
128.487	445.800	969230.000	196280.000	350030.000	107190.000	8560.000
129.274	448.000	923760.000	195460.000	323080.000	104030.000	8760.000
130.065	450.600	896900.000	196990.000	298670.000	100930.000	8850.000
130.855	452.900	877730.000	197660.000	281170.000	97060.000	8900.000
131.645	455.200	851660.000	197460.000	263530.000	93950.000	9060.000
132.434	457.400	826440.000	196840.000	251040.000	89370.000	8490.000
133.225	459.700	813130.000	197810.000	242060.000	88000.000	8860.000
134.011	462.300	789130.000	199400.000	235320.000	86460.000	8860.000
134.800	464.600	768600.000	198040.000	230890.000	83640.000	8710.000
135.592	466.900	756720.000	198930.000	228870.000	81910.000	9250.000
136.381	469.200	743280.000	199650.000	227580.000	81100.000	8860.000
137.171	471.400	731050.000	200370.000	222020.000	78660.000	8600.000
137.960	473.700	719280.000	202210.000	221180.000	78810.000	8850.000
138.749	476.300	709360.000	198990.000	218670.000	76760.000	8800.000
139.539	478.200	701350.000	201710.000	220510.000	76360.000	8640.000
140.331	480.800	714220.000	201900.000	217570.000	75680.000	8580.000
141.122	483.100	702130.000	200750.000	217270.000	74300.000	8750.000
141.912	485.400	695010.000	203720.000	215280.000	73590.000	8570.000
142.702	487.900	687780.000	202120.000	215110.000	73300.000	8770.000
143.495	490.200	682660.000	204560.000	211330.000	71450.000	8730.000
144.286	492.500	674440.000	205250.000	209750.000	71380.000	9050.000
145.077	494.800	667570.000	203980.000	210940.000	71890.000	8500.000
145.869	497.100	655180.000	203650.000	205660.000	69570.000	8560.000
146.660	499.600	654040.000	205090.000	206380.000	70170.000	8800.000
147.450	501.900	655850.000	207520.000	205250.000	69090.000	8770.000
148.244	504.200	637440.000	203850.000	202260.000	69200.000	8500.000
149.033	506.400	644950.000	207790.000	205800.000	68730.000	8750.000
149.826	508.700	632930.000	204760.000	200670.000	67670.000	8300.000
150.618	511.000	627790.000	205680.000	200000.000	68270.000	8470.000
151.409	513.600	623230.000	206380.000	199690.000	66930.000	8590.000
152.202	515.800	614420.000	205250.000	197710.000	68280.000	8650.000
152.997	518.100	623880.000	207910.000	199410.000	65920.000	8410.000
153.789	520.400	613570.000	207920.000	195250.000	66550.000	8330.000
154.579	523.000	606060.000	208200.000	193270.000	66600.000	8430.000
155.369	525.200	600850.000	207170.000	194100.000	65550.000	8690.000
156.160	527.500	603740.000	208620.000	190510.000	65330.000	8830.000
156.950	529.800	589900.000	212110.000	190150.000	65600.000	8420.000
157.738	532.000	586020.000	208880.000	188160.000	66120.000	8590.000
158.525	534.300	590510.000	210260.000	189170.000	64940.000	8210.000
159.312	536.900	582630.000	209920.000	188900.000	65810.000	8540.000
160.101	539.100	585620.000	213180.000	187490.000	66020.000	8800.000
160.894	541.400	580220.000	208380.000	184760.000	66140.000	8620.000
161.683	543.600	579340.000	210300.000	184560.000	65620.000	8430.000
162.470	545.900	570890.000	210660.000	182750.000	66100.000	8360.000
163.256	548.200	572630.000	211700.000	183930.000	66150.000	8440.000
164.044	550.700	577260.000	212060.000	180860.000	65790.000	8510.000
164.834	552.700	577040.000	213390.000	184260.000	66560.000	8320.000
165.621	555.300	577100.000	212970.000	180460.000	65340.000	8350.000
166.410	557.500	581560.000	214000.000	181970.000	67120.000	8210.000
167.200	559.800	574210.000	214280.000	181510.000	65170.000	8320.000
167.990	562.100	576130.000	214350.000	179730.000	65840.000	8300.000
168.779	564.700	571680.000	215290.000	182370.000	65430.000	8100.000
169.569	566.900	583070.000	215970.000	181770.000	66260.000	8560.000
170.360	569.200	580950.000	217240.000	180390.000	66250.000	8460.000
171.149	571.400	574610.000	215920.000	179780.000	65250.000	7840.000
171.938	573.700	573370.000	216750.000	179500.000	65990.000	8430.000
172.731	576.200	579010.000	220490.000	183320.000	66820.000	8370.000
173.521	578.500	583880.000	217650.000	182420.000	68070.000	8350.000
174.311	580.800	570250.000	218120.000	182700.000	67280.000	8380.000
175.103	583.100	571200.000	219940.000	182430.000	68130.000	8740.000
175.893	585.300	580980.000	218300.000	184550.000	67260.000	8340.000
176.683	587.600	569030.000	217350.000	184300.000	67050.000	8330.000
177.474	590.200	574900.000	217880.000	185420.000	68210.000	8500.000
178.260	592.400	581540.000	220120.000	187220.000	68010.000	8290.000
179.051	594.700	584760.000	221430.000	188800.000	68010.000	8300.000
179.843	596.900	571730.000	219510.000	189350.000	68010.000	8300.000
180.635	599.100	586230.000	219170.000	187650.000	67760.000	8240.000
