Fri, Mar 25, 2016	12:12 PM
 Notes: 
 waiting time: 30.000
 time(s)	 temp (K)	 MS1=2.085	 MS2=15.166	 MS3=17.074	 MS4=26.712	 MS5=41.148	 MS6=42.035	 MS7=42.992	 MS8=57.407
0.000	170.000	317.680	61.434	43.858	273.857	0.532	93.194	3.028	0.074
0.784	170.000	306.430	52.766	42.486	271.841	1.023	91.506	2.952	-1.154
1.569	169.900	312.709	59.254	45.974	267.833	-0.339	95.150	3.300	-0.661
2.358	170.000	322.836	60.321	41.587	269.466	0.265	95.527	2.829	-0.992
3.145	169.900	317.115	60.803	47.262	268.580	0.404	92.826	3.018	-1.231
3.931	170.000	322.441	53.658	46.348	267.845	-0.709	92.104	4.157	-0.870
4.721	170.000	332.432	57.726	46.588	267.552	0.057	94.286	4.610	-1.412
5.510	170.000	319.256	58.627	47.265	264.834	0.712	88.373	4.379	0.556
6.299	170.200	315.788	59.100	43.735	269.651	-0.288	94.249	2.983	-0.486
7.084	170.700	324.221	54.234	49.067	264.963	-0.491	91.822	4.220	0.309
7.871	171.500	321.200	57.511	48.710	269.186	1.197	87.902	3.707	-0.142
8.661	172.700	314.370	56.885	51.993	276.358	0.110	88.390	2.990	-1.176
9.448	174.400	318.095	57.788	55.574	275.183	-0.157	87.653	3.006	-0.829
10.236	176.900	311.542	60.180	53.480	270.755	0.992	89.924	3.160	-0.207
11.022	179.500	318.699	58.901	65.789	268.009	0.373	85.956	4.573	-1.367
11.810	182.500	312.086	58.283	62.070	258.428	-0.435	84.798	4.300	-1.088
12.595	185.800	314.818	55.295	66.498	264.371	0.030	87.171	3.107	-1.095
13.381	189.200	322.992	55.101	66.446	272.045	0.372	87.859	4.184	-0.184
14.168	192.600	313.106	55.257	57.736	268.215	-0.154	92.724	4.280	-0.452
14.958	196.200	316.676	53.901	62.823	263.306	0.550	83.966	2.796	-0.770
15.745	200.200	325.138	56.776	63.698	266.724	1.288	87.703	4.062	-0.204
16.535	203.800	328.240	52.256	72.527	265.735	1.522	86.656	4.926	0.553
17.324	207.400	320.899	52.607	70.718	262.728	2.190	82.843	5.982	-0.458
18.112	211.100	324.071	58.730	71.756	257.186	2.871	85.270	6.825	0.649
18.902	214.800	325.346	52.404	72.719	263.148	8.190	85.668	9.802	1.281
19.687	218.500	325.545	59.029	72.539	260.644	8.205	86.662	11.233	1.343
20.475	222.700	322.174	55.555	68.368	264.220	8.675	89.874	11.510	0.855
21.263	226.300	323.708	57.288	71.094	265.168	9.743	87.288	9.747	1.280
22.052	229.800	330.045	56.257	70.210	277.446	7.225	90.161	8.416	0.625
22.843	233.300	330.826	63.652	67.928	262.522	6.567	88.013	8.742	1.183
23.630	236.800	319.947	61.395	69.918	263.395	6.130	86.987	7.839	0.578
24.419	240.700	326.545	57.134	65.437	260.617	5.706	86.642	7.631	0.126
25.207	244.100	328.873	59.391	64.193	262.816	4.936	86.128	5.541	0.417
25.995	247.500	342.659	63.691	67.157	262.036	5.101	81.750	6.690	0.713
26.784	250.800	337.381	65.683	69.514	256.716	5.704	82.302	7.702	0.675
27.570	254.100	341.224	64.346	66.746	265.878	4.706	88.290	7.950	-0.148
28.358	257.500	351.138	64.977	63.010	262.580	5.219	84.384	7.053	0.128
29.144	260.800	352.665	61.436	66.322	266.670	4.018	89.399	5.845	0.346
29.935	264.500	365.944	62.444	63.094	262.695	3.303	83.377	6.621	0.978
30.725	267.800	378.006	58.876	65.165	260.474	6.129	85.746	5.832	0.005
31.514	271.000	363.468	58.959	70.112	268.806	4.769	88.637	5.836	-0.406
32.301	274.200	364.468	54.961	64.860	269.010	5.875	82.579	6.443	-0.203
33.085	277.400	376.098	59.088	69.197	262.407	5.398	85.924	6.699	0.012
33.875	280.700	382.322	54.755	69.856	260.458	4.700	85.137	7.047	0.114
34.663	284.300	371.708	50.225	64.106	265.021	4.517	81.979	7.118	0.173
35.454	287.500	374.121	54.489	66.573	262.868	3.650	83.893	8.491	0.166
36.245	290.700	382.584	60.916	65.661	263.807	3.658	85.911	7.753	0.234
37.034	293.900	388.754	53.920	68.506	267.649	4.639	82.951	6.847	0.098
37.821	297.000	379.246	54.101	64.706	258.219	5.038	83.010	5.805	-0.238
38.609	300.500	381.690	53.690	62.173	258.200	3.961	85.024	6.182	0.333
39.394	303.700	396.603	51.871	67.666	255.447	3.477	77.841	6.049	-0.067
40.182	306.800	392.437	55.223	70.051	255.762	4.859	83.511	5.717	0.434
40.970	309.900	398.896	53.827	68.304	255.320	3.364	79.951	6.611	0.265
41.758	313.000	398.555	54.568	69.551	256.376	4.602	83.889	4.871	0.369
42.544	316.100	404.140	61.436	66.953	264.354	5.633	85.759	6.256	-0.094
43.330	319.200	403.562	56.701	65.563	249.401	5.120	81.698	5.570	0.657
44.121	322.700	393.991	57.497	66.048	263.036	4.020	83.044	7.203	0.191
44.906	325.800	415.056	59.559	69.934	263.105	5.079	84.731	5.958	-1.157
45.695	329.000	415.631	58.068	65.562	254.075	5.323	84.260	7.541	0.974
46.484	332.000	419.099	56.502	70.928	269.488	4.807	84.186	6.667	0.448
47.270	335.100	416.738	61.298	67.872	257.709	5.724	88.673	6.327	0.010
48.059	338.200	425.300	56.166	61.999	263.024	4.663	88.887	7.177	-0.519
48.847	341.700	435.311	57.435	67.050	266.523	3.744	85.227	7.450	-0.247
49.639	344.800	441.596	57.124	66.352	265.737	5.004	92.087	7.465	0.549
50.430	347.900	444.511	59.489	67.209	258.649	5.093	94.053	6.863	-0.206
51.223	351.000	437.805	60.544	70.771	256.820	5.910	94.673	5.930	0.331
52.013	354.100	441.820	60.226	66.134	270.661	6.573	98.826	7.868	-0.142
52.801	357.600	446.857	63.941	70.996	274.015	4.925	94.023	7.621	0.659
53.582	360.700	443.719	59.419	62.181	265.512	3.663	99.894	7.131	-0.109
54.369	363.800	442.583	62.132	66.458	262.315	5.555	100.764	6.800	0.698
55.156	366.900	450.097	63.280	65.887	265.124	4.760	101.080	8.876	-0.084
55.944	370.000	445.155	59.962	68.342	278.760	3.714	97.984	6.555	0.904
56.729	373.100	439.620	64.877	67.444	277.319	5.860	99.829	7.742	-0.305
57.516	376.200	428.288	58.613	68.595	274.626	6.543	93.079	9.178	0.098
58.302	379.700	424.505	60.555	60.962	283.842	7.141	98.588	7.826	0.814
59.088	382.800	419.264	58.580	67.808	280.350	5.230	96.128	8.025	0.821
59.876	385.800	416.163	62.750	68.720	301.912	5.461	92.850	8.381	0.048
60.663	388.900	410.747	63.668	63.292	307.003	7.000	92.395	8.441	0.215
61.452	391.900	413.152	59.517	68.023	314.497	5.695	94.825	7.926	-0.403
62.243	395.000	416.224	63.881	66.172	317.791	4.211	93.036	6.969	0.516
63.030	398.000	407.559	60.879	64.549	333.331	6.129	98.238	6.931	-0.528
63.815	401.500	410.089	65.372	68.178	328.904	5.815	95.093	8.806	1.369
64.603	404.600	413.661	64.310	68.765	329.006	4.681	96.203	7.548	1.188
65.391	407.800	398.704	66.317	71.629	337.519	4.941	96.302	7.956	0.270
66.179	410.900	407.112	66.830	68.397	324.922	5.994	93.026	7.134	0.447
66.968	413.900	401.393	62.988	67.444	333.692	4.772	95.585	8.201	0.975
67.756	417.000	402.054	63.094	77.416	328.609	5.032	98.460	7.301	0.293
68.543	420.500	392.415	63.908	67.185	328.525	6.331	96.133	8.507	0.209
69.334	423.600	399.802	63.813	70.344	336.215	6.764	98.965	8.706	-0.223
70.124	426.700	393.729	65.516	67.975	324.372	5.014	94.472	5.966	0.681
70.914	429.800	394.638	60.456	74.505	325.353	4.601	98.740	7.595	0.716
71.703	432.800	382.383	61.718	70.998	326.330	8.859	97.371	8.486	0.056
72.492	436.300	378.330	66.369	71.793	326.320	5.255	95.275	7.718	-0.061
73.280	439.400	383.075	62.533	64.497	317.413	6.519	99.751	8.253	-0.300
74.066	442.500	381.261	65.831	66.958	328.745	6.882	100.238	8.261	-0.287
74.854	445.600	385.077	65.629	66.993	318.760	6.141	94.312	8.346	-0.054
75.645	448.600	391.062	61.327	71.847	321.781	7.938	96.866	8.991	-0.793
76.435	451.700	384.955	64.249	67.780	326.350	7.700	96.318	8.564	0.979
77.223	455.300	376.320	63.998	67.845	314.229	7.742	95.484	8.389	0.808
78.012	458.300	365.530	64.946	65.887	325.855	6.268	92.417	8.175	0.074
78.800	461.400	368.433	62.686	67.173	328.898	7.408	95.020	8.565	-0.034
79.587	464.500	370.332	59.083	69.745	316.154	5.504	94.065	7.359	0.681
80.372	467.600	356.383	63.589	69.460	313.274	5.614	93.032	7.037	1.111
81.159	470.700	349.674	66.859	65.569	313.445	5.362	92.406	7.419	0.314
81.946	473.800	356.158	64.380	69.546	319.096	7.911	95.363	9.532	1.608
82.738	477.300	357.868	62.374	63.914	325.065	5.563	94.968	9.368	-0.398
83.526	480.400	347.318	66.497	62.827	315.580	6.758	96.094	7.542	-0.647
84.314	483.400	350.154	64.301	67.143	318.373	9.803	94.620	7.166	0.426
85.101	486.500	352.221	61.994	69.361	323.012	5.917	94.467	8.844	-0.376
85.885	489.600	343.338	62.909	67.460	318.874	7.348	95.203	10.456	0.215
86.671	492.700	354.718	67.087	69.937	312.415	5.473	94.045	8.851	0.645
87.462	496.300	336.506	68.575	67.718	311.380	6.606	93.695	8.148	1.249
88.251	499.400	345.130	67.115	66.219	316.847	5.300	94.766	9.117	1.196
89.040	502.400	347.908	64.819	67.471	318.037	6.796	96.108	7.644	0.235
89.830	505.500	343.474	68.180	67.070	310.172	8.675	93.082	8.751	0.461
90.615	508.600	334.929	66.865	73.444	309.745	7.055	93.147	8.063	0.711
91.401	511.600	337.510	65.557	68.499	303.798	6.673	90.883	8.772	-0.171
92.189	515.100	333.610	61.601	69.030	309.882	6.351	92.332	9.004	1.295
92.977	518.200	334.976	60.771	69.721	306.903	7.679	96.241	9.238	-0.050
93.770	521.400	326.536	63.072	74.248	310.133	7.901	93.376	8.927	0.332
94.559	524.400	330.881	60.689	70.496	294.811	7.089	94.147	8.497	0.784
95.349	527.500	335.679	64.240	66.208	297.905	4.948	88.209	9.578	1.379
96.134	530.600	334.405	60.928	66.104	287.284	6.554	88.352	12.128	0.555
96.922	534.100	325.974	59.077	68.546	294.263	7.225	91.903	7.648	-0.129
97.712	537.200	338.074	61.415	64.641	292.952	9.181	91.441	9.044	-0.167
98.500	540.200	330.218	61.517	63.563	289.498	8.185	90.094	8.911	0.983
99.286	543.300	323.087	59.979	63.034	283.502	8.190	89.829	9.427	0.737
100.073	546.300	322.379	63.051	71.299	285.893	7.216	89.806	8.089	0.362
100.859	549.400	324.330	59.737	69.127	291.059	6.358	90.280	8.186	0.713
101.643	552.900	328.426	61.935	71.413	286.146	7.654	86.058	9.895	-0.106
102.427	556.000	324.283	55.856	60.699	292.896	8.431	90.562	9.709	0.725
103.215	559.100	319.968	55.057	70.202	285.442	7.798	89.755	9.472	0.747
104.002	562.200	323.800	58.719	68.940	276.278	6.871	87.928	10.054	-0.045
104.790	565.300	331.395	60.208	67.881	288.501	6.987	84.770	9.600	0.959
105.576	568.300	320.293	55.843	64.877	289.651	7.530	93.998	9.485	1.355
106.366	571.400	321.985	57.079	68.561	286.524	6.974	86.797	9.305	0.041
107.153	574.900	323.011	59.542	70.196	276.679	6.697	92.448	9.462	0.614
107.941	577.900	320.373	55.733	67.360	293.211	7.631	92.820	8.357	0.343
108.732	581.000	324.063	58.462	72.806	281.096	8.160	88.728	8.796	0.847
109.516	584.100	324.867	56.231	72.007	292.644	7.850	88.875	9.174	0.811
110.303	587.200	320.523	55.444	72.627	298.656	7.361	85.897	10.287	0.164
111.091	590.300	316.255	57.478	68.823	281.995	5.803	84.052	7.394	0.624
111.877	593.800	324.853	58.793	65.419	284.329	7.868	84.294	8.848	-0.199
112.666	596.800	326.152	55.868	71.792	293.319	7.594	84.975	9.428	0.730
113.456	599.900	319.622	58.377	71.188	282.078	8.301	80.653	9.290	1.612
114.242	602.900	320.463	58.347	71.351	286.129	6.895	84.252	7.237	0.424
115.029	606.000	315.056	57.946	72.647	288.609	8.587	83.039	8.598	0.972
115.820	609.200	314.254	55.467	70.685	287.385	8.195	85.261	7.160	1.278
116.605	612.700	322.660	55.025	70.188	284.194	6.275	82.164	9.123	0.220
117.394	615.800	322.406	54.794	71.459	281.705	5.583	83.984	10.072	0.846
118.183	618.800	324.340	56.766	76.005	283.787	7.647	80.864	11.031	1.118
118.969	621.900	319.629	55.118	68.428	293.934	5.937	85.617	8.994	1.255
119.760	625.000	318.242	55.190	66.783	281.749	9.548	80.174	8.894	0.428
120.549	628.100	310.774	53.067	71.042	286.054	6.114	78.454	10.203	0.337
121.336	631.600	317.559	59.251	67.725	287.803	7.455	83.420	9.123	0.762
122.124	634.700	305.607	56.893	67.407	292.657	7.057	79.813	8.961	0.544
122.913	637.800	322.152	57.558	69.639	286.453	7.202	77.849	8.887	0.617
123.701	640.900	315.534	53.437	72.137	291.296	7.893	82.308	9.851	0.656
124.485	644.000	315.426	58.567	69.848	286.691	7.423	78.777	9.637	0.727
125.273	647.000	306.345	57.550	70.665	288.295	7.592	81.249	9.701	-0.041
126.061	650.500	315.687	59.494	73.451	289.349	6.559	82.404	9.588	0.362
126.852	653.600	333.723	54.029	67.861	282.040	7.151	79.828	8.024	0.838
127.639	656.600	309.664	53.486	72.872	284.200	6.255	81.564	8.786	0.134
128.426	659.600	326.706	53.870	68.973	284.687	6.788	78.181	9.164	2.035
129.214	662.700	318.521	56.844	72.526	292.100	6.283	82.465	9.790	-0.100
130.000	665.800	305.460	58.918	70.430	292.892	6.326	83.654	8.729	0.199
130.788	668.900	315.500	56.500	68.695	296.507	8.254	77.726	8.245	0.316
131.576	672.400	319.963	60.991	74.283	299.397	7.205	80.340	8.376	1.119
132.361	675.500	306.234	55.430	75.415	296.997	7.259	81.632	8.470	0.633
133.150	678.500	306.575	62.570	75.344	300.262	9.002	81.875	10.377	0.586
133.941	681.600	306.557	57.912	73.457	305.695	6.418	75.910	9.108	-0.125
134.729	684.700	313.674	58.047	71.223	298.297	6.586	81.967	10.293	0.547
135.516	687.800	314.590	53.475	74.200	296.973	10.467	80.667	8.987	0.928
136.305	691.300	320.001	57.520	75.943	304.260	9.466	78.856	8.751	1.968
137.091	694.400	309.860	57.001	72.934	303.618	7.063	85.221	9.083	0.563
137.880	697.500	312.626	53.587	74.929	308.027	7.237	78.453	9.276	-0.163
138.669	700.600	304.539	57.885	75.809	307.285	6.530	79.808	9.145	0.640
139.457	703.600	313.420	60.807	76.265	311.362	8.246	79.906	8.653	0.632
140.241	706.700	310.339	59.738	72.321	301.038	7.323	81.518	10.489	-0.367
141.033	710.200	312.120	57.683	71.702	309.895	9.757	76.044	9.797	0.579
141.819	713.200	305.733	58.240	81.512	310.512	7.504	78.193	8.840	-0.042
142.608	716.300	309.913	55.235	80.307	308.446	7.357	78.248	10.388	1.368
143.397	719.400	311.514	60.262	72.331	307.462	7.590	81.826	9.202	1.493
144.186	722.600	308.039	59.867	75.690	310.480	8.680	79.509	8.578	-0.635
144.974	725.700	307.518	63.210	79.016	308.118	8.274	80.933	6.600	1.974
145.760	729.200	300.845	60.028	74.513	314.593	6.467	77.520	10.166	-0.426
146.548	732.300	308.203	57.776	80.667	312.049	7.042	80.043	8.622	0.661
147.337	735.400	300.897	53.293	79.441	312.329	9.816	82.797	9.139	0.379
148.126	738.500	309.556	56.388	74.575	318.535	7.628	76.093	9.457	0.929
148.915	741.600	305.536	57.486	77.544	319.959	6.601	83.644	9.304	-0.450
149.703	744.600	321.346	55.229	78.025	313.456	9.350	82.884	9.394	0.704
150.489	748.000	329.155	57.882	71.873	319.896	8.244	81.440	9.205	1.354
151.279	751.100	327.317	56.977	78.857	319.571	6.322	84.884	7.265	-0.202
152.066	754.300	311.046	57.759	81.298	319.153	5.975	83.938	10.321	0.719
152.855	757.400	303.910	53.662	81.780	317.448	8.161	79.905	9.491	0.244
153.645	760.500	313.112	53.504	76.430	315.066	5.941	78.007	8.822	-0.026
154.432	763.600	314.424	55.337	82.532	318.675	8.616	82.025	10.120	-0.384
155.222	767.100	299.379	54.835	76.221	317.950	7.719	77.911	9.548	-0.012
156.011	770.100	312.135	55.916	85.363	310.629	7.049	80.022	9.013	1.090
156.799	773.200	303.194	56.607	80.054	317.560	6.837	82.450	9.035	-0.387
157.587	776.200	313.318	60.569	76.496	308.379	8.995	81.708	8.074	0.292
158.377	779.200	311.184	61.265	79.127	304.018	5.150	78.434	10.518	0.788
159.163	782.300	309.423	56.041	81.452	314.106	6.853	81.076	7.367	0.237
159.951	785.700	302.974	57.790	78.142	310.118	7.186	79.579	11.036	-0.173
160.741	788.800	312.594	62.031	77.323	318.107	7.182	83.263	9.050	1.315
161.526	791.900	314.622	56.602	80.171	311.134	7.622	81.006	9.946	0.203
162.311	795.000	309.497	56.591	83.953	309.903	6.988	83.189	9.897	1.431
163.099	798.200	308.444	60.194	78.400	314.299	6.138	82.739	9.118	0.416
163.886	801.300	310.917	56.236	77.302	305.296	7.776	83.268	7.981	0.556
164.673	804.800	310.058	58.063	79.213	302.908	7.041	81.770	10.176	0.773
165.463	807.800	302.815	58.765	78.468	314.575	8.524	80.046	9.184	-0.051
166.246	810.800	309.061	56.465	81.950	314.431	7.441	83.970	9.531	0.143
167.030	813.900	308.486	55.982	80.385	322.478	9.033	81.996	9.060	0.026
167.814	817.000	302.365	56.189	83.198	308.500	7.425	84.111	9.809	0.509
168.602	820.100	302.983	59.251	90.429	313.216	7.355	81.366	9.754	0.473
169.384	823.200	306.461	52.568	84.442	314.065	6.940	83.500	10.051	0.330
170.170	826.800	300.527	56.930	84.656	313.794	8.911	80.952	9.974	1.197
170.955	830.000	308.969	61.981	85.564	319.030	7.132	78.503	8.445	1.446
171.739	833.100	305.203	57.576	85.417	317.730	8.590	78.082	9.791	0.322
172.530	836.200	316.441	62.351	85.468	311.041	8.892	79.337	9.660	-0.361
173.315	839.200	312.924	56.375	86.933	313.920	8.052	81.360	8.834	-0.549
174.100	842.200	309.141	59.054	90.820	308.638	7.114	80.496	7.943	0.476
174.885	845.300	299.585	53.261	83.893	319.630	9.371	78.275	9.356	0.384
175.677	848.800	309.207	55.957	81.080	318.595	7.579	76.433	8.970	-0.710
176.462	851.900	303.161	59.287	87.700	314.000	7.157	85.072	9.761	1.682
177.247	854.900	309.129	56.936	86.873	313.265	6.443	78.707	8.788	0.559
178.031	857.900	311.073	58.255	87.911	309.985	8.080	79.954	9.626	0.444
178.815	861.000	316.175	58.868	89.824	307.212	6.984	76.570	9.512	-0.190
179.603	864.100	314.703	62.103	87.327	306.014	6.335	82.071	8.812	0.996
180.391	867.100	303.497	55.841	84.389	306.442	8.281	77.611	9.138	0.795
181.177	870.600	299.490	58.814	86.577	308.771	6.223	81.296	6.504	-0.365
181.964	873.600	297.555	56.889	90.032	311.689	7.916	83.271	7.973	0.454
182.752	876.700	312.055	58.499	86.078	313.491	8.146	80.736	10.271	0.983
183.538	879.800	303.819	56.490	85.979	301.954	8.170	80.358	7.615	1.152
184.323	882.900	308.561	59.750	91.973	296.535	5.572	77.248	9.040	0.121
185.108	885.900	311.032	55.570	89.454	304.994	7.343	76.596	9.132	0.314
185.897	889.000	306.528	54.531	95.071	300.541	6.327	86.497	9.479	0.560
186.685	892.500	320.523	61.622	92.830	308.993	6.010	82.550	9.395	0.992
187.477	895.600	313.403	57.891	92.119	308.231	8.319	80.744	8.940	0.558
188.269	898.700	304.347	59.245	93.726	306.774	6.819	83.034	10.202	-0.237
189.056	901.900	317.541	57.155	92.413	306.068	9.128	80.180	8.171	0.104
189.847	904.900	304.729	58.803	95.440	297.008	8.100	83.058	7.343	0.921
190.636	908.300	314.778	54.888	97.490	298.294	9.062	78.648	8.541	-0.122
191.422	911.300	306.570	56.852	93.680	306.355	7.265	77.286	8.356	0.231
192.207	914.400	305.514	55.518	97.694	304.559	6.174	80.339	8.818	0.299
192.990	917.400	311.612	56.113	100.126	295.136	8.127	82.076	7.084	-0.238
193.777	920.500	310.026	62.055	93.311	312.751	7.769	80.534	10.149	0.354
194.563	923.600	305.614	59.882	97.842	304.450	9.098	79.496	10.238	1.002
195.346	926.700	302.786	61.481	92.587	297.646	5.725	84.829	8.578	1.012
196.131	930.200	309.349	59.118	97.151	307.219	8.479	83.124	9.298	1.099
