Mon, Mar 07, 2016	7:13 PM
 Notes: 
 waiting time: 30.000
 time(s)	 temp (K)	 MS1=2.051	 MS2=15.880	 MS3=17.884	 MS4=28.038	 MS5=43.088	 MS6=44.029	 MS7=45.058	 MS8=60.047
0.000	128.000	1613.161	186.581	208.087	400.097	-2.616	4.585	0.502	0.533
0.785	128.000	1608.130	177.308	209.013	394.411	-2.373	4.679	1.118	0.547
1.572	127.900	1603.405	184.950	201.691	398.894	-2.487	3.818	0.457	-0.264
2.358	127.900	1600.131	180.656	207.739	384.542	-1.693	3.356	1.007	0.475
3.149	127.900	1590.544	166.304	201.798	388.159	-3.065	4.774	0.549	0.214
3.939	127.800	1549.698	173.281	198.969	377.563	-2.111	3.061	0.398	0.682
4.725	127.800	1567.137	169.122	203.602	383.696	-2.740	3.346	0.330	0.378
5.511	127.700	1549.053	168.392	204.546	366.913	-3.104	3.891	0.734	0.006
6.295	127.700	1567.547	162.696	204.999	367.442	-2.297	4.828	0.783	0.928
7.082	127.700	1526.851	161.375	202.324	377.955	-1.936	3.394	0.386	-0.083
7.873	127.600	1549.556	158.958	198.644	369.013	-2.778	4.548	1.159	0.825
8.660	127.600	1541.182	155.303	198.627	366.815	-2.391	4.275	0.345	-0.234
9.447	127.500	1529.080	160.923	193.000	376.654	-2.796	3.646	0.918	0.548
10.231	127.500	1517.102	162.181	197.080	365.161	-2.008	4.091	0.597	-0.031
11.020	127.700	1540.144	158.596	196.883	362.845	-1.369	3.727	1.424	0.537
11.813	128.100	1536.203	158.150	194.292	374.556	-2.292	3.607	0.934	-0.039
12.602	129.000	1529.880	156.803	196.012	371.597	-2.445	3.981	0.439	0.465
13.392	130.900	1514.147	155.542	187.703	371.069	-1.198	5.069	0.557	0.038
14.183	133.300	1533.109	156.954	191.524	369.403	-2.459	2.953	0.324	0.601
14.973	136.300	1536.470	147.918	200.631	385.887	-2.341	4.026	0.429	0.060
15.764	139.500	1542.538	154.858	190.976	380.350	-1.564	4.415	1.340	0.990
16.555	142.800	1514.726	155.693	192.940	370.930	-1.370	3.597	0.669	0.484
17.348	146.500	1522.178	155.412	202.364	371.171	-1.558	4.566	2.048	0.221
18.136	149.800	1532.154	158.192	220.197	382.305	-0.731	4.462	1.224	0.911
18.925	153.200	1544.064	167.495	241.464	391.667	3.239	4.212	3.135	0.904
19.714	156.800	1543.142	187.489	281.724	387.753	6.841	5.463	3.430	1.298
20.501	160.500	1512.531	187.371	272.339	391.371	1.841	4.059	2.559	1.295
21.289	164.200	1504.902	182.977	279.197	378.422	-0.039	5.298	2.598	0.239
22.077	168.300	1507.275	179.367	293.351	367.981	-0.054	3.828	2.102	0.335
22.867	171.800	1512.158	169.262	310.527	370.664	-0.556	5.577	1.081	-0.046
23.656	175.300	1491.496	165.887	320.167	362.314	-0.390	4.494	2.650	0.059
24.444	178.700	1491.314	173.550	286.480	377.189	-0.603	3.933	0.989	0.696
25.232	182.200	1514.655	171.674	247.965	371.363	-1.112	5.125	2.206	1.037
26.022	185.600	1517.236	175.528	245.410	368.051	-0.695	4.049	2.048	1.348
26.809	189.600	1484.792	169.480	238.389	368.946	1.162	4.134	3.513	0.458
27.596	193.000	1496.358	177.574	242.731	376.090	1.618	4.909	4.299	0.786
28.382	196.400	1514.532	188.655	243.549	383.027	1.634	4.824	3.364	1.249
29.173	199.700	1516.202	188.993	254.119	387.266	2.685	5.415	4.303	1.448
29.962	203.000	1533.419	209.386	267.100	398.777	4.615	4.694	5.969	3.185
30.752	206.300	1527.351	230.160	287.874	397.459	8.871	5.925	7.699	2.011
31.543	210.100	1544.810	262.095	318.634	427.070	14.437	6.904	10.791	1.040
32.332	213.400	1567.704	296.795	346.461	453.104	18.171	8.612	13.938	4.295
33.120	216.700	1617.082	332.549	384.567	458.367	19.387	7.905	13.412	2.254
33.911	219.900	1590.349	338.686	381.379	464.439	15.212	9.036	12.034	2.373
34.698	223.100	1569.171	307.068	364.519	444.343	13.002	8.904	8.803	2.238
35.487	226.800	1549.718	273.023	342.549	461.686	9.935	6.813	9.095	2.537
36.276	230.000	1541.180	259.415	315.147	437.471	6.909	6.286	5.252	1.597
37.064	233.200	1527.315	246.469	288.758	421.907	4.836	6.850	3.303	1.657
37.854	236.400	1505.331	225.658	288.118	422.178	3.601	4.989	5.423	2.037
38.644	239.600	1525.554	224.289	274.822	412.361	2.013	5.073	5.069	1.175
39.434	242.700	1507.389	214.771	269.188	394.952	1.266	6.774	2.642	0.215
40.222	246.400	1530.735	211.061	250.512	405.503	2.405	5.459	4.246	0.722
41.008	249.500	1528.820	211.477	260.841	401.391	1.815	6.087	3.515	1.146
41.794	252.700	1520.284	201.749	250.429	399.681	1.794	5.164	4.093	0.830
42.582	255.800	1515.749	211.897	248.021	387.152	2.132	5.734	4.163	0.215
43.369	259.000	1559.708	198.121	244.714	389.094	2.153	5.705	3.332	0.785
44.158	262.100	1541.566	199.684	239.181	384.461	1.040	5.873	3.967	0.282
44.947	265.700	1566.774	203.865	242.873	394.834	1.485	5.166	2.702	1.656
45.740	268.800	1567.080	198.571	237.223	388.673	1.972	4.980	2.331	1.680
46.531	271.900	1575.911	197.657	234.614	385.203	2.602	5.164	3.469	0.743
47.320	275.100	1588.482	194.515	230.516	386.054	2.414	4.664	3.618	1.131
48.111	278.200	1622.525	189.026	250.776	385.607	1.282	5.677	3.282	1.254
48.901	281.300	1642.720	192.829	239.558	384.258	1.722	4.461	2.594	1.019
49.687	284.900	1649.915	184.910	235.128	378.786	1.838	5.206	2.210	1.965
50.478	288.000	1640.266	184.428	232.922	375.001	1.232	6.162	2.636	0.858
51.267	291.000	1684.806	186.726	236.635	380.167	2.194	4.437	3.712	1.183
52.056	294.100	1714.146	179.283	232.982	375.550	0.775	4.269	3.199	0.413
52.842	297.200	1742.335	180.963	221.533	384.455	0.871	4.334	3.175	0.946
53.630	300.300	1762.354	181.712	230.013	371.123	0.551	4.112	2.149	0.882
54.416	303.800	1783.533	176.738	228.712	368.846	1.094	4.397	2.947	1.146
55.206	306.900	1797.589	174.227	225.860	373.095	0.869	3.936	1.784	0.858
55.991	310.000	1796.467	182.681	228.109	376.944	1.461	4.492	2.141	0.606
56.768	313.100	1808.229	174.520	228.128	375.537	1.728	5.315	2.241	1.274
57.552	316.100	1775.933	180.171	228.961	376.846	1.197	4.950	3.097	0.771
58.343	319.200	1826.777	176.335	227.002	377.885	0.715	4.609	3.052	0.358
59.130	322.300	1815.529	180.753	221.982	378.171	-0.037	4.569	3.431	0.776
59.922	325.800	1819.323	180.663	224.098	368.364	0.588	5.378	2.708	0.674
60.711	328.900	1833.859	184.436	217.842	366.876	0.596	5.523	2.486	0.667
61.497	332.000	1820.666	179.448	217.120	376.464	2.051	4.231	2.919	0.942
62.282	335.100	1803.229	183.904	225.576	371.272	1.186	4.956	1.985	1.499
63.073	338.200	1770.541	183.331	219.827	364.146	0.560	5.384	2.386	0.549
63.862	341.300	1781.497	177.876	216.104	365.746	0.446	4.947	2.172	0.118
64.648	344.800	1731.777	178.282	224.982	377.461	1.534	4.887	3.409	0.695
65.439	347.900	1739.127	175.117	227.341	372.607	1.364	4.912	2.859	0.195
66.222	350.900	1731.841	180.122	215.189	359.288	1.810	5.734	2.324	1.057
67.006	354.000	1709.915	173.641	224.250	370.100	1.117	4.736	3.052	1.223
67.793	357.100	1689.049	176.590	211.643	373.926	0.462	4.664	3.089	1.424
68.579	360.200	1657.455	178.031	210.789	369.888	-0.750	4.850	2.166	0.211
69.369	363.700	1672.829	175.364	213.829	373.552	1.476	5.746	1.803	-0.257
70.160	366.800	1646.227	177.577	213.051	372.995	1.832	4.487	2.908	0.866
70.945	369.900	1650.941	175.258	218.718	370.141	1.167	5.579	2.289	1.526
71.733	373.000	1638.751	178.794	211.771	374.153	0.833	4.514	3.194	0.426
72.519	376.100	1626.402	182.397	213.781	368.728	0.735	4.580	3.218	1.037
73.309	379.200	1638.863	176.372	209.969	366.131	1.928	5.424	1.589	0.029
74.099	382.700	1603.353	180.990	209.784	371.707	0.441	5.235	2.664	1.522
74.887	385.800	1581.644	177.312	206.679	367.855	0.836	4.708	1.906	0.759
75.677	388.900	1580.786	168.857	205.219	366.058	0.107	4.174	1.925	0.593
76.465	392.000	1578.952	177.973	208.534	358.172	1.280	5.562	1.954	0.744
77.255	395.100	1556.984	174.608	208.666	365.261	0.515	4.218	1.981	0.426
78.045	398.200	1550.314	174.064	205.144	372.320	0.406	5.177	1.701	0.508
78.835	401.700	1558.091	169.910	202.867	369.897	1.022	3.615	2.446	0.861
79.626	404.800	1549.403	174.170	207.249	361.625	1.098	5.372	2.242	1.127
80.415	407.900	1524.775	171.815	212.286	359.553	0.753	3.805	2.459	0.922
81.206	410.900	1519.103	170.707	212.581	371.633	0.369	5.526	2.505	0.788
81.994	414.000	1511.917	171.848	210.145	377.778	0.271	4.953	1.447	0.600
82.784	417.500	1560.496	166.042	206.200	376.230	0.866	5.057	3.732	1.094
83.570	420.600	1560.579	168.185	199.254	373.332	1.567	4.937	2.823	0.244
84.357	423.700	1519.604	175.550	207.631	372.470	0.853	4.607	2.518	0.127
85.148	426.700	1506.173	170.741	206.738	379.815	0.064	3.846	2.217	0.785
85.933	429.800	1512.837	173.485	204.131	382.039	0.580	3.718	1.864	2.121
86.720	432.900	1508.252	173.136	205.307	379.027	1.583	4.404	2.443	1.200
87.504	435.900	1486.752	170.076	202.662	374.761	-0.063	5.746	2.748	0.040
88.293	439.400	1496.700	167.911	206.824	384.520	0.102	4.409	2.689	0.789
89.076	442.600	1483.962	167.451	210.845	386.629	1.497	4.439	2.919	0.107
89.864	445.700	1467.038	166.059	202.703	393.179	0.300	3.186	2.080	0.276
90.651	448.800	1479.854	172.160	200.595	396.931	-0.071	5.495	1.887	2.133
91.444	451.800	1506.674	168.691	211.888	392.971	-0.028	5.259	2.552	0.060
92.233	454.800	1490.574	166.622	209.554	392.392	1.057	5.172	2.785	0.356
93.025	458.300	1471.540	167.803	202.539	392.442	0.720	3.210	2.326	0.426
93.815	461.400	1476.886	166.181	208.530	394.404	1.225	4.435	2.761	0.912
94.605	464.600	1452.832	167.819	209.310	395.110	0.658	3.046	1.572	0.402
95.393	467.600	1462.629	168.220	205.142	389.569	0.464	5.043	3.482	0.423
96.179	470.700	1462.324	172.389	204.952	393.116	0.648	5.758	2.356	1.118
96.967	473.700	1470.666	164.100	204.270	382.539	1.744	6.187	2.388	0.544
97.757	477.200	1450.687	161.972	201.347	387.449	1.136	3.526	3.528	0.582
98.547	480.300	1461.478	169.978	202.737	386.357	-0.277	4.425	1.457	0.689
99.336	483.400	1450.641	163.174	201.518	385.312	0.271	3.276	3.219	1.197
100.122	486.500	1439.159	165.639	202.348	395.849	0.892	3.465	3.085	1.016
100.910	489.500	1444.266	161.280	206.397	374.856	0.187	3.574	1.874	0.624
101.698	492.600	1455.787	159.715	204.799	373.980	1.738	4.952	2.928	0.121
102.485	496.100	1450.680	161.259	209.062	382.918	-1.470	4.529	2.262	0.626
103.273	499.200	1453.450	162.581	207.562	384.334	0.116	4.659	1.531	0.588
104.062	502.300	1418.011	162.714	202.029	381.303	0.018	3.747	2.695	-0.363
104.852	505.300	1443.498	159.302	204.687	366.780	0.431	3.962	1.624	0.914
105.645	508.400	1461.104	157.434	198.814	358.415	0.848	5.933	2.229	1.192
106.433	511.500	1421.666	162.701	205.963	371.035	0.345	4.335	2.746	0.624
107.225	515.000	1440.676	165.704	203.049	367.148	1.548	4.492	1.994	-0.018
108.017	518.100	1434.379	157.766	202.682	360.963	0.893	5.302	2.398	0.759
108.807	521.200	1441.431	162.080	210.596	360.349	0.478	5.119	2.569	0.681
109.596	524.300	1440.226	162.117	211.272	370.142	1.287	3.721	2.153	0.567
110.386	527.400	1440.334	161.314	208.025	366.839	0.976	4.352	2.063	0.651
111.175	530.900	1419.671	160.154	205.623	357.963	0.468	5.159	2.384	0.628
111.964	534.000	1422.378	158.340	204.747	368.499	0.189	4.307	2.734	0.357
112.753	537.000	1425.987	156.416	210.433	359.505	0.818	2.888	3.080	0.088
113.543	540.100	1440.865	160.839	199.808	350.536	1.513	2.870	1.496	0.964
114.335	543.300	1423.620	155.399	206.679	354.486	0.169	5.154	3.041	0.589
115.125	546.800	1431.494	153.899	203.456	358.945	0.007	4.632	1.616	0.265
115.916	549.800	1417.677	158.343	206.885	360.568	1.062	4.942	2.113	0.405
116.703	552.900	1409.943	159.004	215.854	359.422	-0.047	3.929	1.740	0.930
117.493	556.000	1416.178	154.919	215.420	351.550	-0.642	3.227	2.836	1.004
118.283	559.000	1421.495	160.882	206.163	354.032	-0.633	5.299	1.747	0.285
119.067	562.100	1411.750	161.826	206.193	356.333	2.004	5.150	2.790	0.570
119.855	565.600	1410.574	158.825	208.998	353.831	1.320	4.726	1.936	0.409
120.643	568.700	1410.874	155.235	213.572	361.772	1.903	4.321	2.170	0.119
121.432	571.800	1418.763	158.306	204.823	363.420	0.616	3.769	2.965	0.815
122.221	574.900	1419.076	160.339	214.664	353.784	0.391	5.911	2.645	0.676
123.009	578.000	1389.887	162.528	210.621	358.162	-0.110	4.908	1.958	1.213
123.796	581.100	1392.940	156.036	209.151	344.507	1.323	3.496	2.341	0.623
124.584	584.600	1422.034	154.202	212.006	356.746	1.006	4.533	1.497	0.617
125.376	587.600	1400.277	152.583	211.499	354.243	0.024	4.716	2.130	1.269
126.168	590.700	1408.060	158.758	213.738	356.347	-0.283	4.378	2.238	1.591
126.956	593.800	1401.514	158.000	212.120	364.821	1.369	3.282	1.720	1.009
127.744	596.900	1405.776	154.366	201.438	347.278	1.023	4.174	1.907	-0.007
128.526	600.000	1409.307	159.794	217.327	356.289	0.204	5.136	1.520	0.115
129.312	603.100	1401.422	155.195	215.766	361.992	0.015	4.193	1.703	0.423
130.098	606.600	1383.878	162.846	216.876	348.911	-0.939	4.090	2.621	0.751
130.885	609.700	1398.869	158.932	214.739	360.757	-0.470	3.754	2.852	0.183
131.673	612.800	1394.059	162.908	218.103	349.984	0.892	4.301	2.283	1.006
132.461	615.900	1401.796	155.356	218.256	348.191	-0.696	4.158	2.375	0.920
133.250	619.000	1395.943	157.564	217.860	352.980	0.680	4.942	2.748	-0.086
134.037	622.000	1397.617	158.117	216.545	346.050	0.433	4.045	1.155	0.500
134.825	625.500	1387.177	153.291	213.116	358.713	0.791	4.023	2.206	0.515
135.616	628.600	1405.745	154.639	225.840	367.250	0.272	4.362	2.311	0.454
136.402	631.700	1397.221	168.845	226.890	353.424	0.210	3.952	1.764	0.275
137.189	634.800	1409.298	152.552	213.808	361.529	-0.442	4.287	2.080	0.340
137.981	637.800	1393.353	149.548	223.055	352.904	1.232	3.355	2.212	1.026
138.770	640.900	1380.101	156.912	218.458	351.772	0.425	4.145	1.701	1.451
139.556	644.500	1377.987	156.437	216.491	355.340	0.430	3.900	2.667	0.328
140.346	647.600	1396.584	156.771	230.858	358.417	0.332	4.349	2.495	1.014
141.134	650.700	1404.439	151.149	222.718	355.591	-0.071	3.664	2.653	1.231
141.923	653.700	1357.605	151.989	222.740	358.760	1.579	4.542	2.326	0.733
142.711	656.700	1385.566	159.724	222.241	355.156	-0.106	5.329	0.561	0.831
143.500	659.800	1380.311	156.169	220.668	361.366	-0.414	4.803	1.469	0.696
144.289	663.400	1373.591	153.605	227.549	348.696	-0.349	3.926	2.525	0.668
145.076	666.500	1389.753	149.899	222.426	353.016	0.174	4.671	2.059	0.801
145.864	669.500	1368.451	154.766	225.833	363.028	0.743	3.709	2.151	0.186
146.653	672.500	1361.761	160.152	223.986	358.515	1.268	5.203	2.498	0.526
147.445	675.700	1396.369	151.671	232.567	356.575	-0.031	4.370	1.841	0.148
148.229	678.800	1369.169	151.327	232.992	357.407	0.387	4.639	1.680	1.675
149.015	682.300	1369.033	150.857	234.610	358.518	0.765	4.015	1.894	0.336
149.800	685.200	1384.089	158.363	221.767	356.945	-0.357	2.491	2.064	0.712
150.580	688.300	1370.060	162.535	227.472	358.116	0.935	3.538	2.321	0.734
151.369	691.500	1390.009	151.365	235.334	344.150	-0.097	4.584	1.900	0.484
152.149	694.700	1380.246	154.659	238.721	362.102	0.271	3.406	2.243	-0.410
152.925	697.600	1360.777	150.547	228.901	349.833	0.501	3.211	2.446	0.805
153.700	700.500	1370.005	149.837	235.090	359.851	0.160	4.621	2.463	-0.055
154.478	703.700	1381.750	156.081	236.738	353.537	-0.065	3.140	2.585	0.150
155.254	706.900	1368.798	149.793	238.275	353.175	-0.040	3.750	2.006	0.281
156.030	710.000	1355.972	143.356	235.862	349.450	-0.100	4.743	1.711	1.825
156.811	712.900	1380.805	151.782	238.407	362.069	1.853	3.768	2.013	1.229
157.597	716.300	1391.340	151.020	231.063	349.076	0.334	3.897	1.909	-0.424
158.383	719.500	1371.217	155.159	236.659	347.833	-0.781	3.752	0.840	0.839
159.159	722.800	1388.424	147.306	248.226	349.009	-0.168	4.640	2.345	0.442
159.947	725.800	1392.982	149.409	243.769	353.185	-0.229	4.683	0.859	0.854
160.735	728.600	1410.241	153.789	250.223	348.743	0.502	4.909	2.739	-0.318
161.523	731.700	1376.557	155.310	240.992	351.707	0.432	3.403	1.681	-0.012
162.313	735.400	1380.441	152.250	248.688	354.337	0.825	4.073	2.324	0.180
163.095	738.600	1375.074	155.627	244.943	350.891	0.333	4.784	2.677	0.467
163.875	741.400	1358.988	152.429	244.250	339.906	-1.130	4.221	1.830	0.637
164.652	744.400	1332.651	159.357	248.503	357.161	-0.692	4.222	2.124	0.178
165.424	747.500	1381.383	158.971	240.258	358.222	0.305	3.442	1.147	0.342
166.201	750.800	1389.481	153.995	245.120	342.614	0.998	4.108	2.509	0.397
166.975	754.000	1350.015	151.175	244.309	350.926	0.763	3.438	1.426	0.391
167.752	756.900	1355.603	154.168	249.456	356.172	-0.427	4.200	0.723	-0.191
168.531	759.800	1379.226	159.725	257.662	360.532	-0.707	4.268	1.650	0.503
169.302	763.000	1354.869	147.465	253.067	355.431	-0.294	4.469	2.323	0.068
170.082	766.300	1361.463	151.225	252.712	357.365	-0.010	3.863	1.856	0.296
170.861	769.400	1350.061	150.698	251.820	345.110	0.345	3.784	2.282	0.681
171.641	772.200	1359.733	146.426	251.970	343.047	-1.066	5.070	2.407	0.052
172.416	775.200	1358.257	148.103	260.326	352.531	-0.592	3.932	1.696	0.701
173.194	778.500	1351.244	149.197	258.999	352.900	1.695	4.047	2.451	0.471
173.977	782.200	1382.227	160.375	260.408	352.186	-0.352	3.943	1.631	0.510
174.752	785.100	1339.652	152.066	263.467	358.737	-0.075	4.019	1.794	1.446
175.537	788.000	1369.388	152.922	258.383	349.314	0.823	4.591	2.477	0.275
176.331	791.200	1345.315	150.943	264.026	353.096	0.545	4.041	2.069	0.961
177.114	794.500	1401.925	154.005	271.256	353.327	-0.642	4.385	1.612	0.468
177.894	797.500	1441.172	159.529	263.525	356.428	0.780	5.242	1.428	1.225
178.667	800.300	1404.159	154.129	256.633	357.311	-0.628	3.696	1.402	0.672
179.445	803.200	1388.147	156.197	271.895	352.490	-0.165	4.119	1.285	0.589
180.224	806.600	1392.352	154.918	270.353	358.638	-0.040	5.302	1.425	0.180
181.001	810.000	1385.483	150.165	269.809	345.022	0.616	3.983	3.005	1.157
181.797	813.200	1380.440	149.724	272.379	352.350	0.858	3.201	1.816	0.704
182.587	815.900	1369.136	155.161	274.107	364.085	0.429	3.152	1.072	0.341
183.376	819.200	1361.223	152.526	277.789	357.665	-0.170	4.541	1.554	0.353
184.165	822.700	1367.965	157.173	276.460	358.553	0.767	3.745	1.853	-0.134
184.954	825.800	1349.692	163.844	276.465	360.929	-1.908	3.942	0.959	0.834
185.729	828.300	1381.063	151.211	273.116	359.011	-0.152	4.330	1.074	-0.045
186.505	831.300	1346.958	151.226	278.129	375.131	0.798	3.391	2.015	0.190
187.284	835.400	1369.000	161.372	273.539	363.116	0.376	3.626	2.395	0.048
188.060	838.700	1372.309	151.533	279.475	355.631	0.488	5.245	1.134	0.709
188.840	841.200	1367.653	155.525	281.557	357.573	-0.874	2.999	1.821	0.063
189.618	843.800	1353.656	156.239	289.586	354.481	-0.582	2.855	1.772	0.338
190.389	847.300	1362.113	156.131	285.761	367.934	-0.623	4.501	2.860	-0.023
191.164	851.100	1359.137	150.527	285.640	364.847	0.070	3.651	2.483	0.407
191.939	854.000	1341.646	150.990	291.254	352.498	-1.515	3.020	1.876	0.566
192.706	856.100	1339.978	154.805	283.638	367.461	0.416	4.012	1.655	0.222
193.479	859.200	1344.600	154.367	288.390	375.544	-0.034	4.582	1.011	0.968
194.252	863.300	1346.699	154.859	303.339	368.772	-0.189	4.305	2.740	0.630
195.030	866.800	1352.214	156.478	296.361	359.519	0.439	4.224	2.688	0.832
195.805	869.000	1349.771	156.503	301.412	377.996	-0.138	3.794	3.055	0.836
196.581	871.100	1373.838	161.041	299.676	376.563	0.110	5.720	1.273	0.688
197.361	875.100	1344.734	158.207	293.400	365.417	-0.304	3.846	1.101	0.517
198.139	879.500	1341.916	154.937	305.280	369.192	0.439	4.515	1.841	0.342
198.919	882.100	1343.889	152.040	293.248	368.111	-1.210	2.651	2.168	0.719
199.697	883.600	1361.561	159.031	303.139	373.251	-0.297	3.016	2.686	0.230
200.473	886.600	1376.616	164.315	313.402	376.749	0.695	4.217	2.082	0.480
201.254	891.800	1339.245	156.469	312.635	377.341	-0.133	3.626	2.267	0.237
202.032	896.000	1332.719	154.944	304.226	363.161	0.775	3.936	1.496	0.478
202.804	897.000	1369.029	151.876	310.013	370.767	-0.605	3.491	2.986	0.272
203.584	898.700	1378.397	160.185	323.531	387.509	-0.007	3.272	1.576	0.028
204.357	903.900	1342.514	156.593	316.194	380.465	0.024	3.819	2.377	0.170
205.137	909.200	1333.859	160.345	310.179	370.271	-0.525	3.154	2.235	0.420
205.911	910.900	1344.601	155.524	321.511	369.874	0.748	4.015	1.305	0.387
206.686	911.000	1360.422	154.029	319.589	390.341	-1.188	4.955	0.429	1.312
207.458	914.000	1412.880	164.774	321.130	399.784	-0.230	3.911	1.193	0.709
208.228	920.300	1354.638	158.151	320.393	372.601	0.033	5.177	1.509	0.375
209.006	924.700	1347.924	158.075	326.612	372.305	0.311	4.239	2.279	1.157
209.786	925.300	1347.420	160.442	324.849	373.717	2.009	4.820	2.312	0.299
210.579	925.600	1371.070	152.799	322.381	371.892	1.118	5.136	1.236	0.121
211.368	929.800	1388.481	155.609	337.901	380.904	0.489	3.817	1.398	0.631
212.157	937.000	1362.430	160.111	330.277	367.842	0.925	4.669	1.813	1.496
212.940	939.700	1377.186	157.475	335.041	365.751	-0.182	3.975	1.307	0.329
213.729	939.400	1348.682	156.401	341.296	367.180	-0.260	3.360	3.337	0.561
214.518	941.200	1400.384	157.929	335.767	375.065	0.418	4.159	2.977	0.640
215.309	946.900	1372.776	164.111	343.093	371.917	0.549	4.900	2.186	1.252
216.100	952.600	1357.413	159.022	328.044	371.450	0.356	4.306	1.735	0.886
216.890	954.000	1362.903	164.961	343.776	359.050	0.130	5.408	1.260	0.579
217.679	953.900	1356.365	161.236	338.170	372.726	-0.318	3.303	2.072	0.619
218.468	957.300	1412.567	164.830	339.098	380.902	-0.192	4.117	2.765	0.973
219.247	963.800	1364.007	154.588	355.173	369.061	1.389	5.440	1.250	1.205
220.039	968.000	1349.059	158.879	348.762	374.378	0.461	4.687	1.684	1.283
220.831	968.300	1328.972	160.766	342.722	365.947	0.880	4.592	2.039	0.149
221.605	968.800	1358.843	163.515	349.058	371.362	0.831	3.282	2.502	1.073
222.389	974.200	1374.913	155.961	353.393	377.802	-0.256	4.121	1.775	-0.295
223.174	980.500	1354.966	162.906	352.541	356.399	-0.752	3.544	1.613	1.214
223.949	982.900	1350.778	152.079	352.960	358.899	0.168	4.343	1.287	0.659
224.723	982.600	1336.936	150.419	353.889	360.456	0.526	5.688	1.234	0.179
225.505	984.600	1396.177	159.126	363.914	368.098	-1.139	5.512	1.784	0.426
226.283	990.400	1372.171	156.089	367.054	371.171	1.787	4.768	1.789	0.353
227.067	996.000	1346.036	161.064	357.767	367.231	-0.382	4.206	1.442	-0.195
227.848	997.500	1348.316	153.229	366.494	354.546	-0.349	3.352	1.873	0.681
228.617	997.400	1369.359	150.418	365.186	373.539	0.694	4.401	1.585	0.895
229.394	1000.500	1405.825	158.907	371.085	378.876	0.249	5.775	2.087	0.453
230.171	1006.800	1347.620	156.578	367.989	361.889	0.119	4.247	1.999	0.185
230.946	1011.300	1338.928	165.819	377.632	359.659	0.254	3.974	1.635	0.683
231.723	1011.800	1351.451	160.789	365.100	351.585	0.827	4.460	1.640	0.412
232.501	1012.800	1352.943	152.360	374.757	363.205	0.015	3.880	1.806	0.316
233.274	1017.500	1345.602	161.277	381.230	370.764	0.973	5.243	1.308	0.851
234.051	1023.700	1343.510	159.557	374.819	352.864	-0.699	3.944	1.791	0.296
234.829	1026.300	1342.364	157.798	380.653	358.855	0.199	4.073	1.523	0.571
235.609	1026.100	1345.067	160.591	381.765	369.047	-0.083	4.251	1.773	0.765
236.389	1028.300	1374.986	162.281	385.447	368.604	-1.018	4.333	1.981	0.256
237.165	1033.800	1363.868	154.256	384.408	365.118	1.047	5.347	1.251	0.551
237.939	1039.300	1324.549	158.243	387.386	359.382	-1.009	5.149	2.256	0.905
238.715	1040.800	1348.311	160.539	379.436	362.778	-0.433	3.208	0.475	1.019
239.484	1040.900	1376.019	157.523	395.127	363.585	0.135	4.795	1.911	0.146
240.260	1044.000	1366.483	157.310	391.114	368.626	0.171	3.163	2.010	1.051
