Mon, Mar 07, 2016	5:03 PM
 Notes: 
 waiting time: 30.000
 time(s)	 temp (K)	 MS1=2.051	 MS2=15.880	 MS3=17.884	 MS4=28.038	 MS5=43.088	 MS6=44.029	 MS7=45.058	 MS8=60.047
0.000	134.700	709.831	91.821	96.853	207.454	0.643	2.557	0.391	0.097
0.785	134.600	707.761	91.206	93.669	205.164	1.044	3.008	0.185	0.439
1.570	134.600	713.146	86.436	99.434	204.208	0.380	3.169	0.402	0.170
2.354	134.500	702.598	92.338	92.266	206.949	1.544	2.634	1.347	0.141
3.137	134.400	696.327	90.248	95.365	206.847	1.455	2.749	0.542	0.609
3.925	134.400	700.517	85.042	100.823	205.215	1.081	2.290	0.928	0.849
4.716	134.300	688.302	86.357	98.476	206.663	1.169	3.359	0.557	-0.071
5.507	134.200	708.232	94.098	95.615	208.224	1.600	2.174	1.133	0.786
6.298	134.200	709.118	85.762	96.059	203.192	1.283	3.075	0.278	0.204
7.086	134.100	705.230	86.516	97.668	203.841	1.661	2.790	0.751	0.708
7.877	134.100	696.383	90.929	103.840	206.216	2.076	3.804	0.648	-0.182
8.665	134.400	696.177	94.467	100.738	212.480	2.764	2.350	1.073	1.372
9.455	135.200	703.353	101.441	108.339	221.241	2.986	2.903	1.345	0.373
10.243	136.600	713.044	99.562	111.550	211.483	2.192	3.312	0.940	0.701
11.026	138.800	713.129	94.234	105.956	211.007	2.200	3.401	1.095	-0.009
11.815	141.800	701.466	99.494	110.609	210.768	1.904	2.600	1.895	0.081
12.602	145.000	706.610	95.000	112.445	217.280	3.953	2.925	1.780	-0.120
13.391	148.700	699.759	101.852	127.533	224.906	4.980	2.527	2.570	1.028
14.179	151.900	719.197	122.531	154.062	231.865	8.403	4.295	4.025	2.172
14.961	155.100	722.485	158.293	194.840	264.572	17.868	4.580	10.194	3.423
15.752	158.300	766.952	261.258	278.415	333.238	46.821	11.077	23.815	7.751
16.540	161.800	858.977	544.763	494.013	537.684	121.751	23.277	66.619	20.282
17.330	165.400	1103.797	1036.625	795.919	847.946	196.074	30.951	97.686	21.975
18.118	169.500	1150.516	1027.528	704.230	766.532	119.634	23.976	59.416	11.141
18.903	173.100	1008.388	709.003	496.411	602.020	56.734	15.719	31.330	6.526
19.695	176.500	914.360	457.294	370.697	491.906	35.311	12.432	17.375	3.769
20.482	180.000	885.641	363.232	304.878	456.864	28.278	9.933	16.229	2.667
21.271	183.400	855.966	327.501	277.206	418.060	23.226	10.218	13.284	3.667
22.059	186.900	857.668	305.227	257.578	398.520	22.229	8.808	14.507	2.909
22.846	190.800	841.161	296.340	249.842	389.661	20.360	9.000	12.450	2.918
23.635	194.300	842.508	270.918	234.285	373.685	19.014	9.808	13.129	1.266
24.426	197.700	838.487	278.726	233.616	377.729	18.883	7.043	12.341	2.245
25.217	201.100	842.333	285.926	236.243	382.731	22.424	8.270	14.092	2.842
26.005	204.400	832.032	301.907	240.027	383.375	23.520	9.077	13.537	2.439
26.793	207.700	880.747	323.111	258.255	404.831	27.838	9.870	19.785	3.606
27.580	211.500	910.409	367.878	268.954	422.101	34.455	10.734	23.608	5.085
28.368	214.800	936.297	427.622	292.370	446.543	37.855	10.658	25.289	5.195
29.155	218.100	944.811	431.710	303.269	458.636	40.738	11.596	23.303	5.068
29.944	221.400	913.873	414.038	295.352	428.240	34.560	11.957	22.557	5.505
30.732	224.600	889.386	378.239	270.862	425.152	29.167	9.293	16.478	2.197
31.521	227.900	873.191	316.802	247.268	396.173	21.664	9.797	12.521	2.060
32.309	231.500	848.309	288.720	222.250	375.229	17.432	9.194	11.534	1.467
33.098	234.700	848.745	271.328	209.779	362.918	14.626	6.505	10.739	2.896
33.884	237.900	845.686	255.002	210.714	353.400	14.675	8.420	9.556	2.656
34.670	241.100	846.605	245.290	194.523	344.662	12.304	5.729	8.855	1.758
35.458	244.300	857.476	225.434	190.217	336.204	13.034	6.065	7.840	2.022
36.243	247.500	847.086	224.720	185.051	327.027	12.732	7.120	6.924	0.574
37.031	250.700	858.532	221.217	185.484	322.047	11.920	7.092	6.461	1.849
37.820	254.300	881.386	227.660	177.582	328.562	11.283	5.967	6.098	2.011
38.609	257.400	883.109	221.946	182.806	305.707	9.225	5.076	4.882	0.939
39.402	260.600	903.831	215.358	175.550	309.970	9.904	5.492	5.732	1.179
40.192	263.700	916.735	197.608	171.229	304.215	8.917	6.180	5.187	1.535
40.981	266.900	942.708	200.654	174.879	311.633	8.167	5.976	5.325	0.724
41.768	270.400	960.339	189.379	168.897	309.676	9.146	5.275	5.080	1.614
42.554	273.500	977.601	186.606	170.823	296.196	7.690	5.648	3.743	1.642
43.339	276.700	980.365	185.010	167.513	300.905	8.038	5.484	4.622	1.701
44.125	279.800	975.415	178.553	162.624	301.658	6.409	6.867	5.192	0.874
44.912	282.900	1012.006	176.761	160.680	286.178	8.190	4.863	4.222	1.210
45.701	286.000	999.877	172.639	159.314	292.507	7.437	5.705	4.968	0.489
46.487	289.200	1014.928	170.901	163.062	281.440	7.009	7.114	4.891	0.432
47.275	292.700	1021.065	175.244	161.043	291.409	6.660	4.954	4.443	1.535
48.057	295.800	1040.972	170.350	154.603	292.442	7.234	5.041	4.571	0.864
48.845	298.900	1049.280	169.258	159.777	285.536	8.081	4.508	3.927	0.759
49.632	302.000	1040.148	164.302	158.626	284.447	6.796	4.148	3.675	0.791
50.415	305.100	1056.401	163.935	159.432	278.901	6.603	5.983	4.107	1.588
51.204	308.200	1055.243	165.355	161.949	282.842	6.368	5.775	4.378	0.387
51.993	311.300	1044.834	166.150	151.679	271.875	7.138	5.642	2.930	0.382
52.785	314.800	1074.765	174.028	156.691	283.175	6.762	5.035	4.479	1.896
53.574	317.900	1062.141	156.696	157.631	287.243	6.744	5.038	3.223	0.279
54.361	321.000	1062.748	154.936	154.702	284.532	6.461	3.846	3.834	1.551
55.148	324.100	1068.162	162.099	148.871	281.476	5.565	5.514	2.645	0.572
55.938	327.200	1048.018	162.649	153.582	277.020	5.993	5.031	3.727	0.571
56.726	330.700	1057.734	158.972	147.909	275.311	5.410	4.025	4.294	0.782
57.510	333.800	1048.616	169.359	148.036	283.793	6.170	4.294	3.145	0.580
58.296	336.900	1060.943	154.878	149.316	281.330	7.240	5.907	3.766	0.827
59.084	340.000	1052.162	165.769	153.509	278.124	5.310	5.953	3.369	-0.067
59.871	343.100	1046.171	156.405	151.159	272.841	5.625	5.003	3.294	0.138
60.659	346.200	1061.650	155.639	146.809	277.746	5.241	4.332	3.007	1.089
61.451	349.300	1053.595	149.494	150.784	276.512	6.068	4.106	3.778	0.740
62.239	352.800	1077.892	160.638	149.814	274.698	4.033	5.195	3.243	0.853
63.027	355.900	1080.772	150.646	151.482	268.317	4.756	5.323	3.725	-0.459
63.816	359.000	1052.945	163.959	143.303	270.498	3.814	5.006	3.779	0.847
64.601	362.000	1055.867	154.332	146.746	276.299	6.738	3.826	2.861	0.727
65.388	365.100	1068.102	149.212	144.356	264.060	5.234	4.685	3.118	0.056
66.175	368.200	1028.795	153.684	144.301	270.454	5.723	5.245	2.381	0.517
66.962	371.700	1035.627	163.108	148.357	278.866	4.895	4.932	3.906	0.307
67.751	374.800	1060.219	157.764	144.631	269.392	5.065	5.926	3.286	1.314
68.540	377.900	1007.348	156.343	137.561	268.241	4.630	5.482	1.930	0.297
69.326	381.000	1006.177	148.554	143.083	273.428	5.268	4.400	2.409	0.640
70.112	384.100	998.426	149.678	143.873	276.266	4.379	4.780	3.206	1.063
70.902	387.100	1022.151	151.030	144.266	284.098	5.839	5.057	2.668	0.847
71.693	390.600	1019.981	147.482	138.928	289.367	5.580	5.453	3.504	0.573
72.482	393.700	1000.070	155.336	141.755	288.198	4.388	4.493	4.227	1.368
73.267	396.800	1001.699	147.918	148.159	303.713	5.206	3.942	1.682	1.238
74.053	399.900	993.377	149.906	140.067	302.253	4.754	3.713	2.164	1.001
74.840	403.000	984.913	143.416	141.107	303.908	5.028	5.817	2.764	0.144
75.628	406.100	988.813	149.680	138.378	317.314	5.700	4.039	2.664	0.236
76.414	409.600	977.849	148.230	144.919	325.928	4.031	4.879	2.567	-0.086
77.202	412.600	980.981	149.927	141.457	326.464	4.747	4.822	2.610	1.214
77.990	415.700	975.575	155.245	146.000	328.454	4.993	3.795	3.211	0.243
78.780	418.800	1000.443	151.583	143.938	341.765	4.439	3.718	1.730	0.341
79.568	421.900	966.288	161.738	140.187	348.031	4.472	3.726	2.273	1.202
80.354	424.900	984.639	151.126	138.458	345.200	4.126	5.496	2.973	0.511
81.142	428.000	955.967	153.495	141.043	338.521	4.067	2.977	3.294	0.928
81.931	431.500	977.372	154.149	144.689	345.654	3.744	4.565	2.463	0.307
82.720	434.600	994.116	144.328	140.513	346.354	4.911	4.481	1.735	1.405
83.514	437.700	973.588	149.248	137.547	341.928	4.758	4.451	2.475	0.153
84.306	440.800	953.407	144.116	143.548	340.678	5.449	4.571	3.470	1.336
85.093	443.800	955.893	147.965	141.461	342.461	4.630	3.570	1.667	0.943
85.882	447.400	947.355	143.156	139.425	335.919	4.734	3.700	2.577	0.946
86.673	450.500	968.990	147.199	145.208	339.969	5.500	4.029	1.342	0.519
87.461	453.500	959.766	150.891	142.251	331.100	4.699	3.818	2.526	1.230
88.247	456.600	947.010	149.553	139.190	333.127	3.837	4.575	2.485	0.728
89.037	459.700	945.049	145.216	142.174	323.768	4.230	4.911	3.132	0.652
89.817	462.800	980.308	151.577	147.202	328.929	4.950	4.585	2.003	0.389
90.604	466.300	936.208	141.146	142.679	310.348	5.547	3.793	1.864	-0.002
91.394	469.400	947.118	147.593	143.892	318.590	4.404	5.437	1.355	0.544
92.182	472.500	950.964	147.054	147.825	302.702	4.036	3.683	1.634	0.699
92.971	475.500	936.042	146.167	140.354	312.554	3.878	3.914	1.380	-0.377
93.758	478.600	920.870	142.220	139.861	312.681	5.759	4.371	1.955	0.206
94.545	481.700	935.239	144.046	141.512	305.592	4.319	4.024	2.434	0.036
95.331	484.800	929.567	145.288	139.219	296.850	3.820	3.441	2.476	0.326
96.121	488.300	913.897	140.959	146.368	296.301	4.472	4.218	2.822	0.588
96.909	491.400	925.460	140.332	133.944	297.003	4.837	4.233	2.521	0.141
97.698	494.500	916.468	140.570	147.347	292.140	6.325	5.198	3.431	0.964
98.487	497.600	913.004	139.239	141.364	290.420	4.744	4.400	2.587	0.621
99.279	500.700	911.198	142.513	148.588	290.313	4.922	4.346	1.326	0.836
100.065	504.100	925.341	144.002	148.953	285.079	3.556	4.967	3.374	1.167
100.851	507.200	916.329	141.129	139.442	288.000	4.539	4.678	1.895	0.771
101.643	510.300	923.169	140.830	141.573	286.218	3.908	3.681	2.629	0.859
102.433	513.400	922.972	142.199	144.614	282.175	3.791	5.267	2.446	0.134
103.215	516.500	903.198	146.160	137.623	280.917	4.583	4.032	3.285	0.241
103.999	519.600	901.137	138.186	144.438	275.415	4.306	3.528	1.933	1.508
104.784	522.600	895.452	144.077	146.250	278.106	4.584	4.264	2.648	0.896
105.572	526.100	903.183	146.001	143.562	279.803	4.540	3.165	2.551	1.279
106.357	529.200	900.496	136.043	140.822	284.602	4.631	5.972	2.871	0.403
107.144	532.300	899.257	146.813	146.325	274.698	4.512	4.221	1.995	0.084
107.935	535.400	886.944	137.672	135.923	276.470	4.574	4.033	2.358	1.655
108.727	538.400	904.408	136.383	147.641	278.709	4.892	3.046	2.507	0.183
109.515	541.500	884.259	139.348	142.048	284.119	4.432	3.873	2.288	0.962
110.303	545.000	882.231	132.823	142.086	276.516	3.086	4.576	2.568	0.033
111.090	548.100	888.031	137.550	143.672	271.648	5.399	3.935	2.902	0.265
111.877	551.200	880.275	132.145	141.213	275.427	5.507	4.381	2.086	0.270
112.665	554.200	875.106	136.882	141.399	270.576	3.980	4.007	1.749	0.190
113.455	557.300	871.599	140.271	142.990	267.449	4.369	4.168	2.708	0.751
114.245	560.400	882.162	134.990	138.231	272.246	4.982	4.428	1.953	0.922
115.037	563.900	886.145	131.176	145.997	270.881	3.117	4.924	2.414	0.711
115.827	567.000	883.423	135.580	144.515	273.022	4.499	4.807	1.784	0.173
116.618	570.100	861.171	134.897	135.772	278.116	4.464	3.353	2.967	0.442
117.404	573.200	854.919	130.490	141.620	264.976	3.929	4.575	3.256	1.765
118.191	576.200	853.735	132.959	141.572	268.419	4.388	3.513	2.412	0.799
118.982	579.300	887.042	132.049	142.832	267.342	4.012	4.519	2.402	0.767
119.769	582.800	863.297	132.480	144.833	265.332	3.360	3.767	1.642	0.354
120.557	585.900	843.083	134.185	142.687	266.889	4.245	2.922	1.885	0.777
121.342	589.000	866.612	123.779	142.625	268.141	3.812	4.079	1.781	0.246
122.129	592.100	855.989	129.553	140.357	264.528	3.922	4.559	2.006	-0.032
122.915	595.100	854.702	125.777	145.579	266.785	5.043	3.896	3.177	1.074
123.700	598.200	857.512	127.730	139.515	257.689	2.846	4.207	2.557	0.867
124.490	601.700	829.153	126.179	139.332	267.974	3.936	3.488	2.598	0.550
125.281	604.800	835.992	129.255	140.298	263.912	3.798	4.420	1.518	0.253
126.064	607.900	833.343	127.702	146.042	269.859	4.011	3.713	2.151	0.760
126.849	610.900	831.583	124.426	140.067	265.531	3.694	3.144	1.951	0.274
127.635	614.000	825.168	125.396	146.693	261.665	3.226	4.509	1.776	0.007
128.422	617.100	813.805	122.806	147.268	260.156	4.964	4.784	2.430	0.763
129.210	620.200	812.430	122.898	140.660	269.857	3.833	3.184	2.185	0.953
129.997	623.700	825.201	126.112	141.218	264.359	2.203	3.770	0.981	0.101
130.788	626.800	818.838	124.169	139.740	258.254	3.529	3.705	1.369	1.048
131.575	629.900	819.769	126.885	142.597	264.344	3.687	3.666	1.779	1.505
132.364	633.000	806.046	119.854	147.459	262.136	3.230	3.911	2.128	0.628
133.153	636.000	813.801	126.922	144.203	253.590	3.720	5.245	2.377	0.563
133.944	639.100	810.805	122.306	139.273	261.751	3.249	2.624	1.406	0.294
134.732	642.600	801.461	120.910	145.827	257.991	2.485	3.494	1.777	0.942
135.521	645.700	804.298	113.790	144.810	266.377	3.632	3.824	2.111	1.392
136.307	648.800	796.005	122.037	149.777	261.738	2.919	3.539	1.662	0.492
137.095	651.900	788.465	123.317	142.538	261.636	1.988	4.299	1.822	0.343
137.879	654.900	802.123	119.483	145.044	262.358	2.935	3.366	2.111	0.428
138.668	658.000	804.908	121.635	144.899	262.170	3.402	4.066	1.770	0.545
139.456	661.500	803.741	118.915	143.763	255.803	3.734	3.223	1.512	0.179
140.242	664.600	779.217	123.919	142.691	259.261	3.287	2.345	2.046	0.269
141.030	667.700	795.658	122.274	147.192	266.385	3.141	3.732	1.283	0.618
141.816	670.800	785.161	118.622	152.129	255.769	2.839	3.645	1.216	-0.287
142.602	673.800	801.794	122.706	142.925	262.112	3.433	5.631	1.599	0.186
143.389	676.900	799.666	123.128	145.784	261.403	2.717	3.676	1.225	0.344
144.179	680.500	781.340	119.125	154.429	260.430	2.600	4.685	2.545	0.874
144.967	683.500	786.960	123.750	146.719	266.302	2.501	2.690	1.570	0.060
145.755	686.600	780.648	117.917	145.142	266.203	2.512	4.153	2.025	-0.139
146.543	689.700	793.655	126.504	149.651	259.110	2.658	3.498	1.727	0.097
147.330	692.700	782.287	122.376	144.216	261.941	2.950	3.035	2.932	0.274
148.119	695.800	793.665	114.843	140.104	266.553	2.873	4.435	2.011	1.028
148.908	699.300	763.986	115.765	142.310	267.652	2.953	4.247	0.895	0.463
149.691	702.400	778.174	116.767	150.469	262.504	2.652	3.423	0.274	0.929
150.481	705.500	810.381	118.683	147.682	257.152	4.115	2.846	1.486	0.778
151.268	708.500	806.931	115.907	148.966	266.346	3.820	3.780	1.718	-0.058
152.056	711.600	811.351	119.174	143.116	258.838	2.719	3.765	2.306	0.373
152.842	714.700	790.688	115.194	143.992	269.497	2.870	3.992	1.644	0.440
153.630	717.800	781.077	120.455	147.745	259.316	2.045	4.132	1.358	0.005
154.418	721.300	773.765	113.605	148.673	269.586	2.879	3.317	1.721	0.582
155.206	724.400	780.003	122.844	145.882	267.639	1.861	4.384	1.626	0.679
155.997	727.500	768.790	119.985	146.919	267.035	3.219	2.845	1.995	1.034
156.784	730.500	777.317	119.415	150.921	264.945	2.044	3.717	1.259	1.085
157.569	733.600	781.858	114.188	148.940	263.369	2.971	3.310	1.459	-0.364
158.353	736.700	770.525	117.561	151.532	270.051	2.597	5.517	1.645	0.630
159.135	740.200	765.105	116.142	145.868	270.537	3.166	4.534	1.251	0.729
159.925	743.300	794.793	117.456	151.489	262.807	2.518	3.301	1.494	0.013
160.711	746.400	765.787	113.961	148.306	269.527	2.662	3.518	1.769	0.255
161.501	749.400	768.795	115.836	149.312	271.129	3.737	2.824	1.649	0.561
162.287	752.500	786.557	116.897	150.157	261.446	4.011	3.635	1.664	1.065
163.072	755.600	779.291	119.773	151.371	263.056	3.402	3.876	1.888	0.694
163.864	759.100	771.397	114.179	145.886	262.478	2.146	2.919	1.657	0.179
164.649	762.200	789.414	115.796	149.401	267.628	2.212	3.712	1.282	0.559
165.438	765.200	779.310	115.715	150.355	266.883	2.462	4.295	1.814	0.705
166.225	768.300	770.658	113.016	148.925	269.418	2.993	2.752	1.441	-0.081
167.016	771.400	758.169	120.802	155.326	262.494	2.902	2.637	1.279	0.115
167.804	774.500	744.025	116.582	155.744	264.826	3.761	3.145	2.348	0.153
168.592	777.500	764.881	113.269	149.508	259.741	3.092	4.109	1.771	0.991
169.382	781.100	767.754	121.642	151.762	263.322	3.384	1.710	1.272	-0.151
170.169	784.200	764.473	112.264	154.022	270.288	3.616	3.481	1.439	0.339
170.956	787.200	770.934	116.031	156.328	273.213	1.804	3.959	1.618	0.444
171.743	790.300	767.845	118.565	151.182	260.115	2.571	3.477	1.147	-0.146
172.531	793.300	777.478	113.725	156.160	259.894	2.835	3.394	1.156	0.030
173.319	796.400	769.774	112.661	144.576	264.396	2.034	2.131	1.251	-0.111
174.107	800.000	753.233	116.953	145.692	267.713	1.723	2.283	1.672	0.363
174.894	803.000	768.299	117.908	155.222	266.712	2.515	3.188	1.218	-0.007
175.685	806.100	766.852	113.703	151.054	268.187	2.306	4.275	1.235	0.533
176.473	809.200	770.784	113.333	150.085	267.921	2.588	2.244	0.794	1.227
177.259	812.300	758.212	113.465	150.810	264.874	2.209	3.602	1.443	1.004
178.043	815.300	738.951	118.013	150.652	265.223	2.171	4.071	2.124	0.771
178.831	818.800	762.869	113.689	158.551	269.541	2.085	4.177	1.018	0.277
179.622	821.900	759.770	117.720	152.948	271.288	2.486	2.711	2.617	0.476
180.412	825.000	760.750	115.614	150.835	270.208	2.827	2.803	1.252	0.508
181.200	828.100	758.987	115.654	150.757	279.661	3.280	3.516	1.576	0.630
181.989	831.100	771.532	110.860	159.225	275.527	1.872	1.890	1.150	0.582
182.776	834.100	750.301	112.548	154.424	270.879	2.352	3.744	1.236	0.420
183.564	837.600	755.532	119.317	153.483	274.411	2.450	4.260	1.979	0.199
184.353	840.800	763.798	114.914	152.073	278.203	2.635	4.236	0.972	0.088
185.143	843.800	766.938	116.851	157.122	278.033	1.663	3.069	0.565	0.352
185.932	846.800	749.223	117.946	159.064	277.575	2.490	4.088	2.423	0.182
186.717	849.900	770.464	111.640	146.981	272.298	2.251	3.563	1.462	0.738
187.506	853.100	758.061	112.601	157.387	273.581	3.059	3.816	0.973	-0.129
188.294	856.700	759.084	115.850	154.967	278.155	2.300	4.059	1.411	0.221
189.082	859.800	757.555	114.593	152.514	271.231	1.929	4.401	1.382	0.540
189.867	862.700	755.901	114.877	157.736	278.021	3.265	3.521	1.850	0.724
190.657	865.800	736.776	106.562	159.391	274.880	2.396	3.619	1.551	0.309
191.446	869.000	752.279	112.364	159.475	274.914	2.763	3.971	0.977	0.824
192.238	872.200	750.756	113.693	162.540	275.193	2.785	3.303	1.751	0.465
193.030	875.500	749.976	113.893	161.611	269.869	2.113	3.124	1.018	0.246
193.818	878.400	751.172	110.875	163.554	274.251	2.484	3.390	0.976	0.081
194.608	881.700	760.806	114.545	158.340	277.190	2.571	3.430	1.157	0.260
195.397	885.100	754.112	110.801	160.705	270.198	2.600	3.373	1.346	0.984
196.180	888.000	750.585	113.121	161.707	271.953	2.303	3.181	0.996	1.064
196.970	890.700	746.588	114.987	161.648	272.479	2.052	3.211	1.673	-0.002
197.759	894.300	769.047	114.458	157.853	261.364	3.424	2.783	1.353	-0.381
198.547	897.900	758.261	113.374	158.010	263.970	2.067	3.095	1.334	0.442
199.335	900.900	749.992	112.465	159.631	260.588	2.975	3.462	0.721	-0.508
200.121	903.400	752.175	117.468	160.024	266.660	2.988	3.863	0.648	0.553
200.908	906.400	779.070	109.768	166.524	267.890	2.141	3.764	1.603	0.404
201.694	910.200	766.171	108.760	160.577	255.423	3.020	3.441	1.099	0.461
202.483	914.000	756.173	111.173	164.096	263.762	2.115	2.568	0.481	0.909
203.270	916.200	755.624	114.505	164.063	269.720	2.569	2.541	0.935	0.457
204.060	918.800	762.383	111.075	166.935	269.221	1.471	3.111	1.573	-0.550
204.848	922.900	761.605	109.360	159.286	255.679	2.391	2.432	1.757	0.244
205.633	926.900	751.217	109.296	163.634	263.621	1.954	2.546	1.805	0.153
206.423	929.100	741.206	110.410	165.190	258.130	2.496	3.391	1.431	-0.008
207.210	931.100	781.236	111.984	167.493	269.305	2.808	3.748	0.542	0.281
207.999	935.300	776.854	111.980	165.789	262.794	3.644	2.922	1.979	0.307
208.789	940.300	754.545	112.595	165.495	254.221	2.426	3.287	1.411	-0.006
209.580	942.800	751.748	111.991	167.253	255.251	2.568	3.888	1.522	0.004
210.372	943.500	773.492	114.888	165.385	262.027	2.157	2.946	1.231	0.150
211.156	946.500	822.506	115.705	164.261	261.937	1.941	3.136	1.808	0.767
211.948	953.100	768.521	112.354	166.690	254.264	2.833	3.508	1.197	-0.133
212.736	956.600	728.228	109.961	161.660	249.934	2.751	3.714	0.617	0.396
213.525	956.900	753.965	110.242	171.354	256.828	1.871	3.163	1.595	0.192
214.313	958.100	834.606	108.660	172.454	264.334	2.933	2.782	1.273	0.225
215.102	963.200	771.893	114.901	161.650	258.622	1.762	3.286	0.832	0.719
215.889	969.100	741.703	110.010	164.186	246.642	2.665	3.374	1.639	0.464
216.677	971.100	751.931	107.912	174.739	250.755	1.947	2.377	1.516	0.019
217.467	971.000	764.700	113.881	174.123	249.589	1.855	2.654	0.789	0.150
218.257	973.900	827.015	117.371	174.616	263.461	2.234	3.055	2.370	0.665
219.040	980.200	766.732	108.239	169.249	249.486	2.772	3.353	1.046	0.932
219.825	984.800	751.864	108.659	175.830	247.012	1.893	3.405	0.620	0.488
220.609	985.400	750.411	109.424	168.985	248.662	2.989	2.682	1.890	0.589
221.394	985.800	787.406	113.920	172.778	257.169	3.015	3.043	1.963	0.568
222.180	990.600	790.879	108.651	174.042	247.836	2.840	2.437	0.799	0.426
222.966	997.000	754.313	110.155	177.911	249.213	2.024	3.244	1.524	0.403
223.748	999.900	749.471	113.236	173.481	248.223	1.872	3.842	1.460	0.190
224.536	999.600	769.549	103.292	172.731	251.207	3.165	2.940	1.268	-0.007
225.327	1001.300	801.595	107.568	173.370	252.006	2.528	3.270	1.008	0.622
226.111	1006.700	776.543	116.409	169.032	250.209	2.230	2.667	1.917	-0.252
226.896	1013.200	744.696	105.542	180.545	240.061	2.823	3.041	1.053	0.829
227.682	1014.500	738.930	107.211	169.311	242.575	2.058	3.217	1.349	0.627
228.467	1014.500	760.386	108.143	181.291	256.172	1.495	3.546	1.366	0.385
229.257	1017.700	792.816	118.475	172.138	249.452	2.719	3.216	1.922	0.445
230.045	1023.900	760.292	108.886	174.865	252.643	3.486	3.678	1.547	-0.127
230.831	1028.400	740.250	109.030	175.737	251.806	2.584	4.443	0.912	0.314
231.621	1028.900	750.809	107.859	185.602	247.169	2.205	3.298	1.663	0.058
232.407	1030.000	773.501	110.712	175.967	262.352	3.261	2.489	0.905	-0.117
233.196	1034.600	772.654	108.245	176.442	249.670	2.440	2.469	1.576	0.032
233.983	1040.700	777.995	116.854	176.200	249.180	2.081	3.077	1.288	-0.269
234.769	1043.400	773.432	111.331	183.817	237.464	1.550	3.213	0.608	0.324
235.558	1043.400	777.300	107.605	183.089	257.042	2.662	2.948	1.258	0.340
236.344	1045.600	782.218	113.691	182.450	263.924	3.728	3.652	1.663	-0.170
237.129	1051.900	782.671	110.818	180.020	251.241	2.069	2.869	0.354	0.633
237.917	1056.900	764.435	111.023	177.932	251.184	2.635	3.610	2.105	0.101
238.704	1057.900	765.903	111.321	183.349	250.277	1.297	2.971	0.948	1.161
239.491	1058.500	754.528	109.914	185.226	261.456	2.134	2.599	0.848	-0.294
240.275	1062.100	774.535	109.930	189.188	255.299	2.363	4.024	0.570	-0.090
241.063	1068.000	753.354	114.774	184.732	254.331	2.376	3.329	2.074	0.808
241.842	1071.900	750.761	112.203	189.519	248.837	2.434	2.144	0.647	0.082
242.628	1072.400	752.818	109.540	185.139	247.009	1.796	3.049	0.808	0.181
243.416	1074.200	766.259	108.619	185.639	270.699	2.763	3.091	1.445	-0.104
244.196	1079.100	761.907	111.812	187.489	254.879	2.822	4.046	1.725	0.923
244.982	1084.600	749.027	105.065	194.145	258.170	1.851	3.465	0.625	0.727
245.773	1086.800	742.959	104.999	193.189	251.056	2.247	2.817	1.001	0.168
246.563	1087.200	765.498	110.332	190.815	262.858	3.330	3.459	1.641	-0.060
247.349	1090.000	794.115	112.975	196.720	257.015	1.654	2.898	0.805	0.102
248.137	1096.200	770.116	111.278	194.727	250.522	2.197	3.672	1.318	0.475
