Mon, Mar 07, 2016	5:20 PM
 Notes: 
 waiting time: 30.000
 time(s)	 temp (K)	 MS1=2.051	 MS2=15.880	 MS3=17.884	 MS4=28.038	 MS5=43.088	 MS6=44.029	 MS7=45.058	 MS8=60.047
0.000	118.800	1012.456	177.399	161.638	326.794	1.208	4.845	-0.025	0.239
0.786	118.800	976.984	181.956	156.124	315.384	1.613	5.002	0.224	0.340
1.575	118.800	988.108	177.020	156.056	320.482	1.763	5.019	0.812	-0.407
2.363	118.800	988.515	180.517	154.092	320.694	1.446	4.218	0.535	0.709
3.150	118.800	983.797	173.894	159.248	318.023	1.832	5.911	0.697	0.971
3.935	118.800	978.162	170.507	149.822	326.171	1.409	5.629	0.015	0.551
4.723	118.800	1001.897	170.589	158.237	323.200	1.571	5.568	0.536	-0.176
5.514	118.800	976.598	170.295	160.901	318.057	1.492	7.142	0.623	0.804
6.307	118.700	981.696	166.859	154.062	310.963	1.736	5.094	0.225	0.046
7.097	118.700	970.262	168.938	161.799	315.365	1.116	5.140	0.194	0.289
7.883	118.700	969.706	164.920	161.697	311.847	2.037	4.867	0.270	0.344
8.670	118.700	971.988	167.111	157.067	310.940	1.772	4.962	-0.667	0.060
9.459	118.700	970.742	162.179	162.117	309.746	1.637	4.644	-0.262	-0.239
10.248	118.700	957.095	165.182	159.966	307.586	1.653	4.341	1.024	-0.028
11.038	118.700	975.368	169.934	152.420	301.528	1.423	4.594	0.370	0.373
11.829	118.600	963.171	159.732	152.514	309.622	1.935	5.289	0.331	0.053
12.619	118.600	973.074	164.664	155.644	302.684	2.119	5.380	1.201	0.222
13.406	118.600	951.293	163.214	162.367	305.657	1.901	6.879	0.543	-0.050
14.195	118.600	975.626	164.088	159.520	306.136	0.555	4.577	0.001	0.657
14.984	118.600	973.065	168.409	151.000	310.228	1.521	5.400	0.730	0.170
15.774	118.800	951.296	164.632	162.452	307.543	2.504	5.219	0.963	0.508
16.560	119.300	971.078	173.604	163.431	323.091	2.661	5.095	1.079	0.521
17.342	120.300	982.518	178.600	173.659	330.553	4.020	6.051	2.084	-0.038
18.126	122.100	981.952	184.951	172.893	326.729	3.596	5.416	0.398	0.762
18.910	124.600	980.989	172.537	166.719	322.928	2.186	6.171	1.409	0.524
19.698	128.100	977.489	174.731	167.952	318.215	2.160	6.366	0.931	0.160
20.486	131.300	967.706	168.781	167.348	315.780	2.017	3.418	0.893	-0.124
21.273	134.500	977.339	168.977	162.317	308.838	2.988	5.681	1.739	-0.582
22.062	137.700	966.979	172.717	163.029	317.601	3.170	5.089	0.440	0.097
22.848	140.900	973.036	173.516	177.394	316.529	3.804	7.381	0.986	0.356
23.635	144.300	977.957	177.506	189.514	321.442	3.036	6.390	1.347	0.512
24.418	147.800	973.003	179.192	219.988	330.107	5.413	7.063	3.113	0.565
25.205	151.900	979.998	207.150	268.986	347.706	10.526	7.162	4.767	1.544
25.993	155.400	1011.105	239.770	334.681	359.082	20.321	10.214	9.088	3.971
26.784	159.000	1040.765	336.313	463.666	427.097	45.053	13.379	22.683	8.516
27.576	162.400	1097.836	581.008	692.400	584.093	110.958	20.576	54.368	18.385
28.366	165.900	1281.906	1032.743	1034.880	848.290	202.800	34.754	93.720	27.003
29.155	169.300	1429.985	1041.505	1041.485	891.856	148.113	32.986	68.566	14.238
29.945	173.300	1298.180	899.223	844.208	703.089	70.108	19.395	34.797	8.185
30.735	176.800	1161.220	573.194	602.849	574.052	37.545	18.154	19.818	3.098
31.525	180.200	1141.915	472.611	486.691	535.447	29.025	13.212	16.940	4.228
32.315	183.600	1108.128	435.685	439.804	502.605	26.367	12.451	15.445	2.645
33.103	186.900	1115.051	398.703	398.429	481.554	23.750	11.760	14.967	2.762
33.889	190.800	1113.811	377.018	374.109	472.707	22.368	11.355	12.446	1.670
34.678	194.100	1104.966	378.816	372.682	464.851	19.924	10.936	13.867	2.890
35.468	197.400	1092.647	361.080	351.943	459.866	21.082	10.228	10.971	2.895
36.256	200.700	1094.031	368.561	347.243	458.550	21.363	10.629	13.132	3.159
37.046	204.000	1116.903	371.146	357.115	457.009	24.186	11.426	16.550	3.505
37.836	207.300	1127.240	394.854	360.661	474.945	24.259	12.582	18.097	3.868
38.622	211.000	1134.670	425.271	375.102	497.168	31.192	13.175	18.598	4.106
39.408	214.200	1165.896	456.979	396.075	507.351	33.917	15.174	26.577	4.885
40.195	217.400	1188.860	496.618	415.547	520.813	37.060	15.315	22.155	4.698
40.982	220.600	1182.265	477.658	401.601	507.291	35.000	12.872	21.334	4.276
41.773	223.900	1166.275	444.538	379.018	484.566	32.180	12.453	16.807	3.061
42.562	227.000	1147.530	412.015	349.747	479.715	23.685	12.874	13.435	3.843
43.352	230.700	1141.775	376.617	329.387	462.881	20.252	12.276	10.815	2.317
44.141	233.800	1120.557	357.895	314.431	444.300	18.434	9.874	11.372	2.374
44.931	237.000	1158.277	356.756	313.039	431.241	17.090	10.697	10.590	1.505
45.724	240.100	1137.639	351.759	297.547	428.260	16.604	10.657	10.056	2.592
46.514	243.300	1173.113	355.224	297.824	441.708	15.066	9.678	8.196	1.625
47.300	246.400	1212.283	355.590	284.493	417.438	14.937	10.727	7.815	1.292
48.091	250.000	1204.963	351.445	273.466	413.291	12.354	8.826	8.061	1.709
48.880	253.200	1260.701	359.193	274.988	420.343	13.056	9.206	8.537	1.826
49.666	256.300	1257.624	359.681	268.662	413.447	12.177	7.879	7.219	1.132
50.453	259.400	1282.698	347.430	278.081	402.735	12.152	8.895	7.193	1.590
51.243	262.500	1292.408	330.455	262.317	404.557	14.015	9.092	6.718	2.386
52.026	265.600	1335.070	320.315	256.328	399.919	11.125	7.510	7.108	1.970
52.815	269.200	1346.239	302.027	261.781	396.965	10.368	8.405	7.190	2.728
53.603	272.300	1409.822	289.871	257.267	404.828	10.808	8.584	6.722	1.110
54.389	275.400	1400.601	271.480	253.293	395.984	10.879	8.059	7.053	1.714
55.178	278.500	1422.582	274.007	253.754	392.897	11.446	8.297	6.652	2.168
55.966	281.600	1474.349	267.543	251.782	396.238	9.287	8.298	5.826	1.473
56.758	284.700	1463.349	260.077	253.550	392.107	8.953	6.954	5.301	2.000
57.546	288.300	1483.699	258.088	244.691	382.289	9.013	9.850	7.000	1.868
58.333	291.400	1493.772	252.946	245.830	390.797	9.880	8.913	6.928	1.466
59.118	294.400	1496.741	248.901	249.879	389.696	7.855	7.677	7.490	0.798
59.901	297.500	1508.910	264.485	247.025	378.049	8.565	7.693	5.682	0.957
60.687	300.600	1489.545	253.043	249.973	377.616	9.477	8.141	6.038	1.240
61.476	303.700	1496.328	250.962	235.987	379.169	9.257	6.731	5.746	1.078
62.265	306.800	1494.823	255.151	241.937	379.230	8.811	7.078	5.103	1.601
63.054	310.400	1491.161	248.044	241.513	384.084	10.790	6.561	5.452	1.308
63.841	313.400	1505.066	248.471	233.118	379.917	9.064	6.092	5.075	0.795
64.630	316.500	1482.965	254.253	229.694	377.571	9.190	9.415	6.393	0.735
65.419	319.600	1485.982	244.205	230.256	377.060	8.461	8.574	4.655	1.003
66.206	322.700	1456.851	253.065	228.836	370.976	8.838	7.341	2.699	0.834
66.990	325.800	1457.839	249.310	233.105	374.394	8.697	8.348	6.175	0.854
67.777	329.300	1450.803	256.775	229.514	373.759	7.381	7.116	3.834	1.095
68.563	332.400	1446.308	244.784	229.780	376.154	8.743	9.153	4.436	1.072
69.350	335.500	1437.994	245.432	226.669	373.619	8.560	8.059	5.747	0.741
70.138	338.500	1446.295	239.653	226.493	367.339	8.328	8.100	4.813	1.435
70.925	341.600	1428.780	241.283	228.272	369.703	7.844	7.224	5.607	1.449
71.710	344.700	1405.394	240.330	226.462	360.170	8.209	8.152	6.665	1.582
72.499	348.200	1388.273	234.011	230.478	365.153	9.114	7.554	4.684	0.255
73.286	351.300	1381.325	232.127	224.411	361.279	8.866	6.932	4.144	0.333
74.075	354.400	1369.260	237.003	229.057	362.228	6.571	8.096	4.691	0.452
74.868	357.500	1350.076	237.085	217.137	376.893	7.995	8.247	5.446	0.748
75.658	360.600	1335.782	242.334	212.528	365.335	7.189	8.429	4.913	0.605
76.447	363.600	1321.671	230.260	218.944	372.165	8.438	7.162	4.452	1.610
77.235	367.200	1294.054	234.143	218.902	367.581	8.386	8.998	4.090	0.916
78.025	370.300	1288.480	232.984	215.849	373.989	7.669	7.121	5.520	0.840
78.812	373.400	1276.324	228.951	214.145	368.633	7.580	7.418	4.851	1.155
79.599	376.400	1235.594	236.083	217.731	367.381	8.123	8.578	4.322	0.177
80.384	379.500	1229.814	228.901	219.100	366.853	5.945	7.385	4.493	0.910
81.168	382.600	1216.213	231.715	219.851	368.493	8.320	7.648	3.415	0.555
81.956	385.700	1208.136	221.333	220.013	371.401	8.498	7.153	5.156	0.710
82.743	389.200	1189.429	226.277	218.096	356.312	6.560	7.853	3.995	1.451
83.534	392.300	1200.085	218.042	219.402	371.066	6.562	6.409	3.873	0.646
84.319	395.300	1177.531	231.171	216.396	374.655	8.014	7.800	5.007	0.088
85.100	398.400	1169.866	222.833	214.618	368.987	7.446	7.351	4.826	1.528
85.885	401.500	1169.216	223.563	210.179	368.634	7.208	8.152	3.321	0.740
86.671	404.600	1175.334	223.628	210.253	386.762	6.311	8.421	3.285	0.513
87.459	408.100	1157.105	217.536	208.915	393.520	7.281	7.630	3.563	1.397
88.248	411.100	1148.702	223.880	212.642	392.486	6.754	6.748	4.567	0.676
89.035	414.200	1142.158	227.180	205.644	410.668	7.786	7.438	4.377	1.188
89.825	417.300	1155.473	226.573	210.073	408.107	6.600	7.880	4.270	0.777
90.615	420.400	1118.085	222.199	212.301	408.505	8.016	5.853	3.254	0.796
91.404	423.400	1148.512	225.396	209.640	434.684	7.673	6.307	4.230	1.095
92.193	427.000	1149.581	222.023	211.025	440.133	8.032	7.344	4.245	0.758
92.985	430.000	1123.705	221.596	207.689	458.106	7.117	6.525	4.395	0.538
93.777	433.100	1139.633	223.775	205.492	460.024	6.807	7.344	3.440	1.101
94.564	436.200	1138.884	219.011	209.404	452.661	6.323	7.058	3.800	1.269
95.354	439.300	1130.607	217.467	212.941	464.603	7.249	6.912	3.735	-0.146
96.141	442.300	1127.342	229.078	209.525	475.232	7.750	6.795	3.608	1.376
96.929	445.800	1128.312	230.636	207.157	478.909	7.149	5.533	3.708	0.649
97.713	448.900	1135.792	224.171	208.011	481.924	5.898	6.250	3.176	0.267
98.499	452.000	1137.928	221.821	211.444	485.247	7.291	5.753	3.851	0.306
99.288	455.100	1113.929	219.485	199.131	484.079	5.332	7.693	3.520	1.128
100.072	458.200	1127.670	227.738	206.855	492.217	6.689	7.070	3.504	0.814
100.855	461.300	1118.721	225.340	200.865	494.371	6.064	7.863	4.961	0.420
101.645	464.300	1113.428	223.900	208.554	476.994	5.595	6.110	3.465	0.345
102.432	467.900	1108.391	230.304	206.030	480.859	6.521	6.350	3.970	0.878
103.221	470.900	1109.803	222.732	203.470	464.336	6.284	7.360	5.208	1.691
104.013	474.000	1112.953	216.592	203.042	465.455	6.974	6.309	3.335	0.598
104.803	477.100	1115.270	215.622	206.125	452.061	6.873	7.607	2.869	0.904
105.595	480.200	1095.091	218.350	200.885	431.012	7.388	8.361	3.495	0.806
106.384	483.700	1124.622	214.038	197.592	421.859	5.880	7.027	4.328	0.887
107.177	486.800	1105.813	211.882	205.794	423.449	6.601	8.221	2.644	1.223
107.965	489.900	1114.395	217.944	205.943	408.379	6.260	7.193	4.482	1.817
108.757	492.900	1090.195	216.194	200.459	390.764	6.582	6.757	3.676	1.307
109.544	496.000	1106.229	215.310	209.547	388.993	7.787	6.848	3.013	1.915
110.333	499.100	1096.799	209.270	190.695	384.973	6.777	6.275	3.212	1.229
111.122	502.600	1126.581	208.204	208.290	380.459	5.501	8.913	3.744	1.313
111.912	505.700	1115.508	211.794	202.633	376.966	6.705	7.829	3.936	0.834
112.701	508.800	1124.190	215.680	200.889	376.886	6.716	6.937	3.095	0.926
113.490	511.900	1103.239	214.630	200.598	375.232	7.425	5.952	3.874	0.346
114.279	514.900	1121.577	223.242	200.780	376.864	7.383	7.613	3.890	0.788
115.070	518.400	1109.164	210.569	201.080	367.317	7.773	6.031	3.051	0.838
115.856	521.500	1109.577	199.825	204.353	365.840	6.850	7.502	4.910	1.575
116.644	524.600	1107.597	212.430	198.302	368.387	6.931	9.178	3.135	0.898
117.433	527.700	1098.908	215.904	204.005	377.199	8.389	6.446	3.933	0.636
118.220	530.800	1116.996	217.353	201.056	370.535	6.565	7.014	4.073	0.632
119.009	533.800	1093.721	214.555	206.688	376.087	6.987	6.867	4.176	0.961
119.798	537.300	1106.985	211.801	201.364	370.123	7.825	6.793	4.996	1.503
120.589	540.400	1098.153	219.655	205.334	377.371	6.926	7.309	3.746	1.773
121.381	543.500	1102.234	214.131	208.304	374.228	8.176	6.571	4.865	0.712
122.168	546.600	1095.654	219.602	204.411	387.576	8.124	8.578	4.962	1.555
122.957	549.700	1095.045	228.075	213.295	380.291	7.939	7.032	3.883	1.750
123.747	552.700	1107.002	213.417	210.137	378.515	8.255	7.064	4.040	1.301
124.536	556.200	1115.462	225.538	210.478	381.879	8.686	7.329	4.542	0.646
125.325	559.300	1100.087	218.966	217.553	371.595	8.639	7.022	4.712	1.652
126.111	562.400	1112.650	223.634	207.362	385.990	8.545	7.302	4.937	0.847
126.900	565.500	1124.253	222.220	217.236	368.064	10.189	8.736	5.203	0.788
127.689	568.600	1114.905	226.822	213.775	374.638	9.014	8.706	6.632	0.602
128.478	571.600	1093.732	226.540	212.151	372.112	8.978	8.838	5.315	0.457
129.266	575.200	1108.901	224.989	204.376	379.135	8.618	8.665	5.350	0.637
130.054	578.200	1102.068	224.951	204.159	376.124	9.654	8.286	5.340	1.540
130.842	581.300	1126.531	224.598	209.074	378.303	10.177	7.398	5.346	0.661
131.628	584.400	1129.200	229.012	211.125	377.903	10.740	7.546	5.158	0.869
132.416	587.500	1108.170	227.088	215.887	383.587	9.807	9.278	4.971	0.812
133.207	590.600	1100.758	222.070	225.856	375.258	8.686	8.232	4.555	1.368
133.991	594.100	1093.487	229.194	209.880	378.466	9.311	6.987	4.102	1.246
134.780	597.200	1088.995	223.652	210.659	376.095	7.888	5.898	5.351	2.252
135.572	600.200	1085.289	219.974	210.509	368.453	8.992	7.029	5.102	0.894
136.362	603.300	1086.477	221.969	207.262	372.782	8.518	6.223	3.855	1.580
137.152	606.400	1079.791	228.800	216.605	371.899	7.690	4.766	4.469	1.621
137.939	609.500	1087.161	223.173	212.304	374.865	9.000	6.361	4.961	0.843
138.729	613.000	1088.461	223.123	212.390	363.316	8.285	6.044	3.929	0.260
139.518	616.100	1069.798	220.210	211.670	367.437	8.550	8.628	4.079	0.835
140.307	619.200	1047.322	209.767	211.932	374.361	8.286	7.346	4.460	0.625
141.096	622.200	1066.727	208.873	207.255	372.932	7.730	7.682	5.607	1.632
141.884	625.300	1061.854	213.202	202.761	368.141	8.592	6.917	3.240	0.789
142.672	628.300	1053.495	210.611	206.510	366.283	7.231	6.782	5.294	0.560
143.458	631.900	1046.890	209.942	209.439	363.189	7.028	7.636	2.954	0.010
144.246	635.000	1032.693	209.839	205.533	372.968	8.980	8.154	4.096	0.953
145.035	638.000	1050.528	207.800	209.161	364.881	6.371	8.245	5.183	2.042
145.825	641.100	1036.829	204.639	200.357	365.232	5.449	6.290	3.662	0.176
146.614	644.200	1041.989	207.480	206.732	366.734	8.102	6.452	4.030	1.159
147.400	647.300	1040.092	192.769	203.297	364.292	7.599	7.546	2.981	0.505
148.188	650.800	1018.685	210.546	208.539	363.372	7.072	7.093	3.625	0.381
148.979	653.900	1021.208	205.985	206.624	369.977	6.376	7.853	2.493	0.995
149.766	656.900	1023.874	197.512	202.751	357.344	6.723	7.691	2.435	2.006
150.555	660.000	1007.345	190.444	199.872	358.643	5.744	7.113	5.136	0.420
151.343	663.100	1015.444	196.829	200.364	362.329	7.120	7.006	3.822	0.466
152.134	666.200	1027.308	202.315	199.849	354.540	5.266	6.203	4.031	0.799
152.920	669.700	1017.341	191.762	203.317	358.840	5.691	7.169	3.688	0.238
153.707	672.700	1005.597	200.627	202.488	362.861	6.141	8.334	3.586	0.604
154.498	675.800	996.309	187.982	203.853	353.864	5.488	6.922	4.558	1.546
155.289	679.000	1003.906	195.476	199.606	356.955	4.788	5.677	3.520	0.831
156.076	682.100	1003.509	196.689	202.990	357.439	5.497	6.600	2.529	1.380
156.864	685.100	1012.840	189.173	200.564	346.154	6.201	6.573	3.211	0.696
157.652	688.600	1008.152	189.581	200.057	350.793	4.823	7.388	2.624	0.498
158.442	691.700	995.884	192.370	201.735	350.891	5.976	6.509	2.853	0.687
159.230	694.800	999.951	197.031	204.472	350.417	5.121	6.725	3.273	0.481
160.017	697.900	994.677	191.928	202.922	349.235	5.571	6.420	2.439	0.218
160.806	700.900	996.067	187.287	207.020	361.257	6.260	7.420	3.370	0.692
161.595	703.900	985.886	184.474	202.111	358.185	4.780	7.068	2.616	1.056
162.385	707.500	1010.858	193.586	198.042	357.270	5.044	7.267	3.197	0.444
163.173	710.600	1014.527	188.049	207.396	356.516	5.906	5.949	3.769	0.721
163.960	713.700	995.500	184.898	203.305	360.213	5.436	7.458	3.697	0.597
164.749	716.700	991.983	185.961	200.317	355.442	5.453	5.556	3.014	0.491
165.538	719.800	980.804	190.120	207.421	355.713	5.857	6.239	3.076	0.877
166.328	722.800	987.576	189.712	198.597	348.175	6.926	5.368	2.586	0.939
167.117	726.400	988.201	184.373	204.123	354.586	5.670	7.830	3.033	0.826
167.908	729.500	986.673	183.965	200.455	354.892	4.960	6.225	2.189	0.304
168.698	732.600	1005.660	183.429	194.732	354.075	6.242	7.840	2.824	1.750
169.489	735.600	978.565	180.411	201.515	344.111	5.014	7.486	2.838	0.665
170.278	738.700	985.672	183.653	202.471	349.331	5.808	6.152	2.561	0.180
171.069	742.300	993.974	179.580	202.512	345.007	6.225	5.848	3.065	0.742
171.856	745.400	980.425	185.640	204.342	358.211	5.268	6.806	2.255	0.518
172.643	748.400	995.323	185.203	208.129	344.003	5.576	6.219	3.629	0.452
173.431	751.400	990.193	183.913	203.413	349.981	4.541	6.169	2.780	-0.340
174.221	754.600	974.087	179.632	210.029	345.303	4.463	5.871	3.987	1.220
175.007	757.700	971.550	181.951	206.252	337.914	4.738	5.718	3.638	-0.133
175.796	761.200	993.131	179.892	197.026	355.178	3.788	5.989	1.840	-0.047
176.584	764.100	973.280	179.976	209.204	350.626	4.759	6.646	1.846	0.694
177.375	767.200	973.881	178.229	209.759	339.904	4.215	6.131	1.954	0.983
178.163	770.400	976.492	175.767	205.643	339.175	5.634	6.306	3.046	1.168
178.948	773.600	977.156	183.334	208.646	343.128	3.656	6.545	1.725	-0.067
179.739	776.500	981.628	181.739	205.776	343.385	5.627	5.948	2.244	0.136
180.525	779.900	977.961	180.424	208.940	339.839	4.282	5.640	2.595	0.537
181.315	783.100	956.128	178.656	202.325	341.750	5.723	5.082	2.858	0.177
182.104	786.300	958.138	179.394	217.536	340.402	5.088	6.674	2.758	0.924
182.894	789.300	966.144	178.924	205.271	343.142	3.962	6.248	1.824	0.576
183.686	792.200	963.886	176.333	201.696	341.115	3.909	5.952	2.682	-0.154
184.475	795.200	983.811	182.545	205.630	350.227	6.619	6.469	1.983	1.105
185.267	799.000	982.169	176.058	199.786	342.787	4.904	5.130	2.666	0.466
186.054	802.200	961.578	170.577	205.305	348.864	4.729	5.424	1.832	0.450
186.844	805.100	958.167	176.667	210.408	346.527	5.217	6.110	1.839	1.060
187.632	807.900	976.811	179.847	209.494	351.011	4.254	5.786	1.272	1.113
188.420	811.100	975.656	176.200	206.326	354.464	4.985	4.789	1.610	0.664
189.212	815.000	966.676	174.960	209.649	348.744	5.109	6.046	2.123	0.829
189.998	818.000	961.207	178.946	209.878	351.227	4.624	5.993	1.644	0.017
190.786	820.700	957.295	177.491	212.913	360.207	4.407	5.885	2.600	0.313
191.573	823.600	977.907	176.670	209.453	353.100	4.776	5.743	1.971	0.603
192.365	827.100	987.144	176.932	209.563	356.433	4.705	7.110	2.670	0.275
193.153	830.600	984.716	170.394	211.020	349.887	4.671	6.208	2.360	0.801
193.940	833.600	964.822	180.365	208.643	361.954	3.866	5.884	2.467	-0.102
194.728	836.100	983.525	177.214	217.294	363.103	4.069	5.953	0.865	1.015
195.517	839.600	951.625	171.619	211.884	374.411	3.797	5.158	2.586	0.278
196.303	843.500	948.319	176.712	214.333	361.039	4.353	5.115	2.635	0.356
197.091	846.400	969.236	178.688	212.904	360.002	4.103	5.657	2.192	0.450
197.880	848.500	972.530	176.826	219.882	374.041	4.781	5.512	1.907	0.991
198.669	851.900	984.586	176.976	217.127	383.931	5.333	5.952	3.517	-0.017
199.458	856.200	966.418	173.831	221.230	372.855	3.564	5.166	2.229	0.681
200.246	859.800	971.231	175.340	211.737	369.247	2.818	7.422	2.551	0.389
201.034	861.700	955.546	181.522	207.691	380.656	4.166	4.915	2.232	0.023
201.825	863.700	973.658	179.065	220.811	394.585	4.091	6.408	1.907	0.242
202.615	867.900	961.443	186.354	219.969	400.921	3.445	7.339	1.881	0.744
203.404	873.200	959.661	175.863	220.053	380.977	3.786	5.034	1.902	0.388
204.194	875.400	958.489	169.441	221.461	378.343	4.947	6.379	1.815	-0.205
204.983	876.400	975.027	175.830	226.394	415.572	4.330	6.791	1.868	0.175
205.773	879.700	1003.023	189.326	215.213	412.145	4.473	5.662	2.538	0.137
206.561	885.600	961.787	179.126	219.796	399.667	3.260	5.546	2.016	0.511
207.348	889.400	963.777	174.250	222.163	376.124	3.812	6.218	2.262	0.112
208.140	890.000	954.955	174.638	215.815	389.982	5.614	6.029	2.351	0.553
208.929	891.400	1013.209	183.576	228.327	426.850	3.561	5.816	2.421	0.050
209.715	896.700	1004.161	188.224	214.732	424.676	2.404	6.335	1.214	0.913
210.501	902.500	974.224	178.162	220.034	383.233	3.489	5.346	3.097	-0.017
211.289	904.500	964.522	171.960	219.316	376.066	4.619	5.784	2.192	0.207
212.080	904.300	974.833	169.167	221.648	401.291	4.893	6.443	2.282	0.462
212.869	907.300	1038.026	179.138	226.747	426.692	4.119	6.732	1.480	0.403
213.658	913.700	964.436	171.224	226.119	403.323	5.508	5.517	2.416	0.035
214.450	918.300	961.421	174.092	224.075	367.882	3.665	5.186	1.491	0.452
215.239	918.900	952.059	173.208	227.700	366.658	5.088	6.120	1.890	1.169
216.026	919.100	992.787	171.876	228.655	395.204	4.268	5.679	2.156	0.130
216.815	923.000	1002.392	177.465	228.689	397.345	3.385	5.303	2.098	0.124
217.604	930.300	959.428	170.556	226.684	381.334	3.026	7.457	2.316	0.557
218.394	933.400	975.594	176.723	226.883	363.754	4.413	5.621	1.292	0.903
219.185	933.200	958.397	171.191	224.915	368.570	3.535	4.679	1.770	0.010
219.972	934.500	1011.740	171.973	228.621	391.693	3.385	5.433	2.171	0.320
220.763	939.900	989.084	178.292	222.069	378.642	3.909	6.812	1.493	0.559
221.553	946.700	943.164	177.675	228.204	357.562	3.893	5.623	3.046	0.715
222.341	948.200	940.471	165.640	231.249	343.069	3.825	4.560	1.881	0.596
223.129	947.800	967.049	168.658	236.987	368.455	3.521	6.473	2.421	-0.058
223.917	950.600	1008.090	172.007	232.550	370.791	4.532	4.867	2.069	0.478
224.705	957.000	972.981	170.657	224.071	360.766	4.024	7.061	2.828	0.859
225.491	962.000	961.282	174.393	227.606	343.102	3.156	5.487	1.117	0.188
226.276	962.600	952.509	164.414	233.058	348.225	2.857	5.544	2.231	1.122
227.062	962.900	966.949	174.996	230.710	348.172	4.622	4.760	2.403	0.180
227.851	967.100	985.456	176.178	231.271	355.544	4.247	5.946	2.380	-0.290
228.641	973.800	953.953	169.680	231.405	347.620	3.780	6.775	2.311	-0.044
229.432	977.300	934.937	178.421	235.267	332.319	4.133	6.660	1.988	0.281
230.223	977.000	951.943	166.233	234.859	336.041	2.698	5.445	1.515	0.114
231.011	978.600	984.066	168.385	236.167	347.707	3.991	5.856	2.415	0.223
231.799	984.000	983.980	170.829	240.683	343.937	3.204	6.358	1.699	0.570
232.587	990.200	961.509	171.112	238.234	333.925	3.933	6.039	2.436	1.596
233.379	992.000	938.746	159.729	238.442	333.632	3.672	5.663	1.743	0.189
234.168	991.600	958.319	171.241	243.781	341.389	3.698	5.817	2.341	0.918
234.954	994.100	991.036	174.378	240.363	343.994	3.704	5.916	3.009	0.620
235.743	1001.100	953.148	174.093	240.809	337.118	3.036	5.913	1.605	0.524
236.529	1006.000	959.255	159.506	236.628	330.604	3.428	6.719	1.827	-0.160
237.314	1006.600	936.095	165.472	238.324	338.713	3.598	5.360	1.676	0.476
238.100	1006.800	955.172	163.368	247.181	340.727	4.046	5.481	1.868	0.557
238.887	1010.600	991.482	166.166	253.756	342.360	3.964	6.376	2.432	0.424
239.675	1017.100	969.417	166.505	246.872	336.989	4.263	5.333	1.771	0.407
240.462	1021.100	930.209	162.142	242.853	328.961	3.729	5.794	1.305	0.305
241.250	1021.000	956.716	168.551	246.351	333.559	4.185	5.004	1.790	1.023
242.038	1022.400	988.472	163.800	248.068	340.617	4.624	6.656	1.655	0.265
242.824	1027.400	966.795	171.239	243.614	342.202	3.208	5.956	1.630	0.003
243.613	1033.700	942.343	168.914	244.517	337.237	4.849	6.143	1.901	0.303
244.401	1036.100	937.019	169.847	250.622	325.095	2.624	5.707	1.241	0.948
245.190	1035.800	956.324	171.473	251.333	325.186	3.816	6.026	2.068	0.500
245.979	1038.600	971.002	164.116	251.358	349.617	3.568	6.054	2.013	0.365
246.766	1044.500	966.072	166.031	254.455	335.973	3.556	6.344	1.634	-0.400
247.553	1049.800	951.621	168.116	254.069	329.345	3.360	6.457	1.666	0.118
248.339	1050.700	956.236	158.324	248.693	333.686	3.612	5.462	1.591	0.400
249.128	1051.000	970.220	171.446	252.511	330.390	3.057	5.981	2.586	0.269
249.918	1054.300	992.520	169.895	253.569	337.092	3.518	5.667	2.598	0.151
250.704	1061.300	955.100	169.904	248.046	328.636	3.455	5.699	1.881	0.595
251.491	1065.200	942.507	167.863	250.587	337.821	3.057	5.978	2.237	0.432
252.277	1065.400	963.693	170.163	259.352	336.042	3.394	5.528	1.492	-0.478
253.066	1066.600	974.880	165.520	256.262	345.855	3.894	6.224	1.489	-0.368
253.856	1071.000	975.813	167.112	253.345	332.075	3.892	5.058	1.418	0.803
254.646	1077.100	953.091	168.316	259.871	335.754	3.724	6.509	1.719	0.271
255.433	1080.300	954.579	164.705	251.914	331.409	3.366	6.315	1.847	0.130
256.222	1080.300	969.851	164.363	252.414	341.044	4.387	6.374	1.598	0.726
257.008	1082.600	967.933	171.592	259.090	356.547	3.681	4.283	1.912	0.362
257.794	1087.700	948.637	167.213	263.006	339.180	3.782	6.252	2.097	-0.252
258.580	1093.300	954.037	162.303	267.635	341.455	2.815	4.909	0.938	1.050
259.369	1095.100	953.916	167.381	255.178	328.184	3.312	4.812	1.611	-0.094
260.156	1095.500	953.618	164.893	263.933	352.457	2.602	5.669	2.578	0.043
260.944	1099.000	969.626	174.122	262.663	351.248	4.521	5.535	2.236	-0.202
261.731	1104.500	944.822	165.832	270.374	342.443	3.438	5.178	1.979	0.280
262.515	1109.000	962.455	168.608	263.573	338.952	3.515	4.418	1.600	0.877
263.301	1110.000	945.079	172.737	266.788	345.046	3.550	6.443	1.388	0.788
264.087	1111.200	968.724	173.198	272.140	357.487	2.939	5.964	0.691	0.703
264.876	1115.000	955.244	169.683	268.015	350.620	3.030	5.717	2.418	0.534
265.666	1121.200	952.083	171.119	268.202	339.359	3.612	5.343	1.641	0.572
