Tue, Jun 06, 2017	11:17 AM
 Notes: 6_6_2017_AA_0 L
 waiting time: 50.000
 time(ms)	 temp (K)	 MS1=61.297	 MS2=13.681	 MS3=17.903	 MS4=28.270	 MS5=29.393	 MS6=44.784	 MS7=61.297	 MS8=65.626
0.000	86.100	310.000
0.138	86.100	440.000
0.423	86.100	100.000
0.609	86.100	110.000
0.786	86.100	210.000
0.953	86.100	300.000
1.180	86.100	170.000
1.388	86.100	120.000
1.570	86.100	160.000
1.703	86.100	70.000
1.888	86.100	160.000
2.035	86.100	140.000
2.179	86.000	100.000
2.356	86.000	130.000
2.504	86.000	30.000
2.680	86.000	170.000
2.827	86.100	270.000
2.977	86.100	90.000
3.155	86.100	200.000
3.315	86.000	200.000
3.454	86.000	130.000
3.600	86.000	240.000
3.738	86.000	240.000
3.876	86.000	240.000
4.017	86.000	150.000
4.202	86.000	140.000
4.342	86.000	180.000
4.488	86.000	180.000
4.632	86.000	340.000
4.775	86.000	300.000
4.914	86.000	70.000
5.092	86.000	150.000
5.231	86.000	190.000
5.437	85.900	230.000
5.635	85.900	310.000
5.773	85.900	310.000
5.912	86.000	440.000
6.064	86.000	360.000
6.202	86.000	260.000
6.341	85.900	180.000
6.492	85.900	110.000
6.630	85.900	290.000
6.805	85.900	50.000
6.950	85.900	120.000
7.089	85.900	90.000
7.227	85.900	220.000
7.366	85.800	110.000
7.513	85.800	160.000
7.651	85.900	330.000
7.818	85.900	310.000
7.974	85.900	220.000
8.112	85.900	220.000
8.251	85.900	240.000
8.390	85.900	310.000
8.550	85.900	330.000
8.690	85.900	250.000
8.835	85.900	240.000
8.974	86.000	110.000
9.113	86.000	160.000
9.287	86.000	250.000
9.425	86.000	370.000
9.564	86.100	120.000
9.713	86.100	370.000
9.862	86.100	280.000
10.011	86.200	180.000
10.175	86.200	410.000
10.352	86.300	350.000
10.508	86.400	230.000
10.662	86.600	280.000
10.809	86.700	290.000
10.961	86.800	150.000
11.101	86.900	300.000
11.257	87.000	530.000
11.414	87.100	440.000
11.553	87.400	560.000
11.700	87.600	200.000
11.859	87.700	310.000
12.005	87.900	440.000
12.175	88.300	340.000
12.322	88.700	320.000
12.471	88.900	530.000
12.610	89.100	300.000
12.763	89.500	160.000
12.901	89.800	470.000
13.040	90.000	550.000
13.180	90.500	450.000
13.321	90.800	280.000
13.459	91.100	440.000
13.620	91.300	390.000
13.787	91.900	400.000
13.935	92.100	580.000
14.075	92.700	670.000
14.249	93.000	400.000
14.388	93.300	380.000
14.527	93.900	330.000
14.666	94.200	340.000
14.824	94.800	300.000
14.963	95.100	420.000
15.118	95.500	510.000
15.256	95.800	670.000
15.396	96.400	410.000
15.541	96.800	410.000
15.679	97.100	490.000
15.819	97.400	630.000
15.958	98.100	370.000
16.097	98.400	670.000
16.243	98.700	570.000
16.444	99.400	660.000
16.582	99.700	620.000
16.731	100.400	420.000
16.884	100.700	700.000
17.022	101.300	440.000
17.163	101.600	640.000
17.302	102.000	650.000
17.475	102.300	760.000
17.614	102.900	480.000
17.776	103.200	480.000
17.916	103.900	600.000
18.067	104.200	490.000
18.236	104.800	620.000
18.390	105.100	390.000
18.531	105.400	580.000
18.678	105.700	580.000
18.830	106.300	680.000
18.980	106.700	550.000
19.125	107.300	350.000
19.277	107.600	600.000
19.425	107.900	510.000
19.578	108.500	700.000
19.717	108.900	620.000
19.857	109.200	390.000
19.996	109.500	460.000
20.136	110.100	760.000
20.285	110.400	520.000
20.424	110.700	650.000
20.562	111.400	690.000
20.701	111.700	770.000
20.863	112.000	550.000
21.013	112.600	630.000
21.151	112.900	750.000
21.289	113.200	570.000
21.429	113.900	510.000
21.588	114.200	500.000
21.747	114.500	790.000
21.884	115.100	410.000
22.031	115.400	840.000
22.170	115.700	610.000
22.311	116.400	470.000
22.451	116.700	700.000
22.589	117.000	610.000
22.728	117.300	630.000
22.867	117.600	710.000
23.006	118.000	730.000
23.166	118.600	710.000
23.316	119.200	710.000
23.454	119.500	610.000
23.592	119.800	560.000
23.731	120.100	590.000
23.870	120.800	700.000
24.008	121.100	700.000
24.148	121.400	730.000
24.309	122.000	830.000
24.446	122.300	510.000
24.585	122.600	640.000
24.752	123.300	810.000
24.891	123.600	670.000
25.031	123.600	800.000
25.169	124.600	450.000
25.307	124.900	870.000
25.461	125.200	880.000
25.600	125.500	870.000
25.749	126.200	780.000
25.888	126.500	680.000
26.027	126.800	600.000
26.166	127.400	830.000
26.333	127.800	700.000
26.472	128.100	790.000
26.612	128.400	550.000
26.771	129.000	770.000
26.926	129.700	760.000
27.066	130.000	760.000
27.205	130.300	730.000
27.345	130.600	870.000
27.483	131.200	980.000
27.623	131.500	860.000
27.788	131.500	800.000
27.944	132.500	840.000
28.083	132.800	530.000
28.222	133.100	690.000
28.361	133.400	640.000
28.501	134.100	910.000
28.639	134.400	740.000
28.777	134.700	850.000
28.932	135.300	830.000
29.104	135.700	840.000
29.248	136.400	700.000
29.389	136.700	720.000
29.540	137.000	880.000
29.690	137.300	690.000
29.838	138.000	550.000
29.988	138.300	840.000
30.136	138.900	680.000
30.289	139.200	890.000
30.448	139.500	950.000
30.601	140.200	820.000
30.750	140.500	700.000
30.898	141.200	760.000
31.042	141.500	700.000
31.186	141.800	870.000
31.331	142.500	920.000
31.484	142.800	650.000
31.662	143.400	830.000
31.818	143.700	820.000
31.962	144.100	790.000
32.120	144.700	990.000
32.274	145.000	700.000
32.414	145.300	780.000
32.553	145.600	850.000
32.694	146.300	800.000
32.849	146.600	750.000
32.989	147.300	740.000
33.138	147.600	940.000
33.277	147.900	830.000
33.416	148.200	880.000
33.555	148.900	910.000
33.694	149.200	730.000
33.833	149.500	960.000
33.971	150.200	910.000
34.115	150.500	860.000
34.254	150.800	850.000
34.393	151.100	960.000
34.532	151.400	960.000
34.670	152.100	890.000
34.809	152.400	940.000
34.948	152.700	720.000
35.089	153.400	930.000
35.254	153.700	910.000
35.401	154.000	870.000
35.539	154.600	860.000
35.679	155.000	910.000
35.836	155.300	1000.000
35.988	156.000	1050.000
36.127	156.300	810.000
36.266	156.600	910.000
36.405	157.200	930.000
36.544	157.600	860.000
36.703	157.900	780.000
36.862	158.500	750.000
37.018	158.800	1010.000
37.158	159.200	900.000
37.304	159.800	730.000
37.452	160.100	1000.000
37.591	160.800	860.000
37.731	161.100	950.000
37.870	161.400	800.000
38.009	161.700	790.000
38.148	162.100	950.000
38.286	162.700	800.000
38.426	163.000	950.000
38.566	163.300	920.000
38.706	164.000	890.000
38.845	164.000	830.000
38.984	164.700	880.000
39.123	165.000	940.000
39.264	165.600	860.000
39.402	165.900	870.000
39.563	166.300	930.000
39.702	166.900	850.000
39.841	167.300	1070.000
39.981	167.600	1030.000
40.121	167.900	960.000
40.303	168.500	880.000
40.442	168.800	790.000
40.581	169.500	900.000
40.719	169.900	860.000
40.859	170.200	1010.000
41.016	170.500	1010.000
41.168	171.100	970.000
41.317	171.400	990.000
41.495	172.100	1020.000
41.634	172.400	960.000
41.773	173.000	710.000
41.913	173.400	900.000
42.052	173.700	930.000
42.191	174.000	940.000
42.331	174.600	950.000
42.470	175.000	960.000
42.609	175.300	920.000
42.749	175.600	890.000
42.888	176.300	930.000
43.028	176.600	1050.000
43.167	176.900	980.000
43.307	177.300	1010.000
43.446	177.900	960.000
43.585	178.200	960.000
43.723	178.500	1030.000
43.888	179.200	990.000
44.027	179.500	1010.000
44.167	179.800	1010.000
44.306	180.100	1000.000
44.446	180.500	960.000
44.586	181.100	910.000
44.726	181.400	1000.000
44.865	182.100	960.000
45.005	182.400	1060.000
45.147	182.700	1020.000
45.287	183.100	870.000
45.426	183.400	860.000
45.567	184.000	1030.000
45.722	184.400	970.000
45.861	185.000	960.000
46.002	185.300	1010.000
46.142	185.700	940.000
46.281	186.000	1030.000
46.423	186.600	900.000
46.564	186.600	960.000
46.703	187.300	910.000
46.842	187.900	940.000
46.982	188.300	930.000
47.142	188.600	990.000
47.282	189.200	1000.000
47.431	189.600	980.000
47.570	189.900	990.000
47.709	190.200	990.000
47.849	190.900	1050.000
47.988	191.200	980.000
48.127	191.500	970.000
48.266	192.200	980.000
48.405	192.500	1020.000
48.544	192.800	1030.000
48.684	193.100	990.000
48.823	193.800	990.000
48.963	194.100	1070.000
49.103	194.500	1000.000
49.241	194.800	1000.000
49.380	195.400	980.000
49.519	195.700	880.000
49.659	196.100	1030.000
49.800	196.400	1020.000
49.939	197.000	1080.000
50.078	197.400	1030.000
50.235	197.700	1040.000
50.398	198.400	1010.000
50.538	198.700	1030.000
50.677	199.300	920.000
50.817	199.300	1130.000
50.956	200.000	1040.000
51.096	200.300	970.000
51.236	201.000	1050.000
51.376	201.000	1030.000
51.515	201.600	1010.000
51.655	201.900	1090.000
51.795	202.600	1040.000
51.941	202.900	1110.000
52.080	203.200	1020.000
52.277	203.900	1100.000
52.417	204.200	1040.000
52.556	204.200	1080.000
52.696	205.200	1120.000
52.835	205.500	950.000
52.992	205.800	1020.000
53.142	206.200	1070.000
53.281	206.800	930.000
53.421	207.100	1070.000
53.571	207.800	1030.000
53.711	208.100	1040.000
53.851	208.500	1020.000
53.991	209.100	1180.000
54.131	209.400	1020.000
54.271	209.800	1030.000
54.438	210.400	970.000
54.578	210.700	1050.000
54.717	211.000	1040.000
54.867	211.400	1140.000
55.008	212.000	1000.000
55.148	212.300	1090.000
55.287	212.600	1060.000
55.426	213.300	1000.000
55.567	213.600	1060.000
55.707	214.000	1160.000
55.857	214.300	1140.000
55.997	214.600	1150.000
56.169	215.300	1020.000
56.308	215.900	1200.000
56.462	216.200	1070.000
56.612	216.600	1120.000
56.762	216.900	1080.000
56.903	217.600	1070.000
57.043	217.900	1100.000
57.182	218.500	1020.000
57.322	218.900	1190.000
57.461	219.200	960.000
57.602	219.500	1070.000
57.741	220.200	1120.000
57.880	220.500	1210.000
58.038	220.800	1040.000
58.178	221.500	1010.000
58.320	221.800	1040.000
58.459	222.100	1100.000
58.599	222.400	1200.000
58.739	223.100	1050.000
58.878	223.400	1190.000
59.018	223.700	1080.000
59.158	224.400	1030.000
59.298	224.700	1140.000
59.438	225.000	1130.000
59.578	225.400	1090.000
59.739	226.000	1110.000
59.896	226.300	1110.000
60.036	227.000	1060.000
60.176	227.300	1260.000
60.316	227.600	1200.000
60.472	228.300	1130.000
60.612	228.600	1070.000
60.752	229.000	1080.000
60.891	229.300	1080.000
61.030	229.900	1180.000
61.170	230.300	1040.000
61.309	230.600	1240.000
61.449	230.900	1180.000
61.589	231.200	1130.000
61.731	231.900	1150.000
61.871	232.200	1320.000
62.011	232.500	1120.000
62.151	233.200	1080.000
62.290	233.500	1100.000
62.430	233.800	1220.000
62.570	234.100	1120.000
62.725	234.800	1070.000
62.865	235.100	1340.000
63.005	235.400	1060.000
63.144	236.100	1130.000
63.284	236.400	1180.000
63.425	236.700	1260.000
63.565	237.400	1140.000
63.704	237.700	1280.000
63.844	238.000	1230.000
63.995	238.400	1140.000
64.136	239.000	1040.000
64.285	239.300	1210.000
64.427	239.700	1170.000
64.566	240.300	1320.000
64.704	240.700	1300.000
64.855	241.000	1140.000
64.993	241.600	1180.000
65.133	242.000	1090.000
65.272	242.300	1150.000
65.412	242.600	1110.000
65.563	243.300	1160.000
65.703	243.600	1150.000
65.841	243.900	1110.000
65.981	244.600	1380.000
66.120	244.900	1370.000
66.259	245.200	1120.000
66.398	245.600	1140.000
66.539	246.200	1240.000
66.679	246.500	1160.000
66.818	246.900	1230.000
66.958	247.200	1230.000
67.121	247.800	1140.000
67.259	248.200	1190.000
67.398	248.500	1170.000
67.546	248.800	1240.000
67.693	249.500	1040.000
67.832	249.800	1260.000
67.972	250.500	1270.000
68.112	250.500	1140.000
68.252	251.100	1250.000
68.390	251.400	1090.000
68.531	251.800	1200.000
68.670	252.400	1180.000
68.808	252.800	1240.000
68.955	253.100	1320.000
69.095	253.700	1240.000
69.234	254.000	1060.000
69.372	254.400	1180.000
69.520	255.000	1210.000
69.659	255.400	1150.000
69.818	255.700	1150.000
69.956	256.300	1220.000
70.097	256.600	1140.000
70.243	257.000	1200.000
70.383	257.600	1210.000
70.523	257.900	1200.000
70.662	258.300	1210.000
70.801	258.300	1440.000
70.942	259.300	1320.000
71.082	259.600	1220.000
71.243	259.900	1330.000
71.392	260.200	1350.000
71.532	260.900	1480.000
71.674	261.200	1520.000
71.814	261.500	1220.000
71.965	262.200	1260.000
72.115	262.500	1300.000
72.262	263.100	1210.000
72.402	263.500	1250.000
72.543	263.800	1270.000
72.681	264.100	1100.000
72.821	264.800	1120.000
72.962	265.100	1340.000
73.101	265.400	1410.000
73.240	266.100	1220.000
73.382	266.400	1200.000
73.520	266.700	1280.000
73.661	267.100	1350.000
73.800	267.700	1340.000
73.939	268.100	1350.000
74.080	268.400	1360.000
74.222	268.700	1510.000
74.361	269.400	1380.000
74.529	269.700	1470.000
74.668	270.000	1140.000
74.828	270.700	1210.000
74.975	271.000	1470.000
75.116	271.600	1560.000
75.271	271.900	1290.000
75.409	272.300	1630.000
75.549	272.600	1370.000
75.689	273.200	1310.000
75.830	273.500	1330.000
75.969	273.900	1250.000
76.108	274.500	1300.000
76.269	274.900	1400.000
76.408	275.200	1320.000
76.547	275.800	1490.000
76.686	276.200	1500.000
76.825	276.500	1460.000
76.965	276.500	1420.000
77.104	277.100	1200.000
77.244	277.800	1600.000
77.383	278.100	1260.000
77.523	278.800	1580.000
77.665	278.800	1560.000
77.804	279.400	1270.000
77.943	279.800	1400.000
78.082	280.400	1370.000
78.223	280.700	1340.000
78.361	281.100	1290.000
78.501	281.400	1420.000
78.640	282.100	1500.000
78.781	282.400	1690.000
78.920	282.700	1600.000
79.059	283.100	1490.000
79.199	283.700	1640.000
79.339	284.100	1480.000
79.479	284.400	1550.000
79.619	284.700	1540.000
79.770	285.400	1470.000
79.916	285.700	1480.000
80.064	286.400	1210.000
80.206	286.700	1510.000
80.346	287.000	1400.000
80.486	287.300	1530.000
80.624	288.000	1350.000
80.765	288.300	1600.000
80.904	288.600	1400.000
81.045	289.000	1290.000
81.185	289.300	1210.000
81.337	290.000	1420.000
81.486	290.600	1510.000
81.626	290.900	1490.000
81.766	291.300	1440.000
81.907	291.600	1690.000
82.047	292.300	1470.000
82.187	292.600	1450.000
82.347	292.900	1430.000
82.497	293.600	1550.000
82.637	293.900	1670.000
82.778	294.200	1400.000
82.917	294.600	1420.000
83.061	294.900	1480.000
83.201	295.500	1420.000
83.341	295.900	1480.000
83.481	296.500	1640.000
83.629	296.800	1370.000
83.770	297.200	1300.000
83.909	297.500	1270.000
84.056	298.100	1600.000
84.196	298.500	1520.000
84.335	298.800	1530.000
84.476	299.100	1770.000
84.629	299.800	1480.000
84.768	300.100	1560.000
84.923	300.700	1750.000
85.063	301.100	1610.000
85.209	301.400	1530.000
85.348	302.000	1630.000
85.488	302.000	1350.000
85.629	302.700	1430.000
85.769	303.000	1470.000
85.908	303.700	1680.000
86.048	304.000	1630.000
86.188	304.300	1750.000
86.328	305.000	1350.000
86.487	305.300	1790.000
86.631	305.600	1730.000
86.772	306.300	1660.000
86.912	306.600	1650.000
87.052	306.900	1680.000
87.191	306.900	1450.000
87.331	307.900	1660.000
87.470	308.200	1550.000
87.611	308.500	1610.000
87.752	308.900	1590.000
87.892	309.500	1500.000
88.032	309.900	1610.000
88.173	310.200	1620.000
88.311	310.500	1570.000
88.465	311.100	1440.000
88.605	311.500	1450.000
88.745	311.800	1770.000
88.884	312.500	1500.000
89.024	312.800	1640.000
89.163	313.100	1470.000
89.302	313.800	1470.000
89.442	314.100	1460.000
89.582	314.400	1570.000
89.722	314.800	1630.000
89.861	315.100	1620.000
90.001	315.700	1560.000
90.141	316.100	1890.000
90.281	316.700	1570.000
90.420	317.000	1590.000
90.580	317.400	1770.000
90.728	318.000	1580.000
90.870	318.300	1870.000
91.010	318.700	1540.000
91.150	319.000	1730.000
91.290	319.600	1700.000
91.430	320.000	1540.000
91.570	320.300	1580.000
91.710	320.600	1690.000
91.852	321.300	1790.000
91.993	321.600	1700.000
92.132	321.900	1830.000
92.273	322.600	1770.000
92.412	322.900	1610.000
92.552	323.300	1680.000
92.692	323.600	1610.000
92.832	324.200	1810.000
92.972	324.600	1680.000
93.112	324.900	1810.000
93.252	325.200	1750.000
93.392	325.200	1950.000
93.532	326.200	1780.000
93.672	326.500	1630.000
93.813	327.200	1760.000
93.952	327.500	1740.000
94.092	327.800	1740.000
94.232	328.100	1740.000
94.372	328.800	1500.000
94.513	329.100	1670.000
94.653	329.400	1610.000
94.812	330.100	1590.000
94.952	330.400	1630.000
95.093	330.700	1770.000
95.240	331.000	1740.000
95.380	331.700	1790.000
95.519	332.000	1820.000
95.659	332.400	1490.000
95.799	333.000	1690.000
95.947	333.300	1600.000
96.086	333.700	1770.000
96.225	334.300	1550.000
96.365	334.700	1670.000
96.505	335.000	1660.000
96.644	335.300	1720.000
96.786	335.700	1870.000
96.926	336.300	1810.000
97.072	336.600	1630.000
97.212	337.000	1640.000
97.352	337.600	1550.000
97.491	338.000	1740.000
97.649	338.300	1820.000
97.788	338.600	1800.000
97.932	339.200	1720.000
98.072	339.600	1790.000
98.211	340.200	1690.000
98.352	340.600	1840.000
98.493	340.900	1660.000
98.633	341.200	1730.000
98.773	341.800	1670.000
98.936	342.200	1920.000
99.076	342.500	1890.000
99.216	342.800	1850.000
99.356	343.500	1850.000
99.495	343.800	1900.000
99.634	344.100	1920.000
99.774	344.800	1770.000
99.914	345.100	1690.000
100.054	345.400	1730.000
100.194	345.800	1690.000
100.337	346.400	1990.000
100.478	346.700	1890.000
100.617	347.100	1940.000
100.756	347.700	1870.000
100.896	348.000	1970.000
101.034	348.400	1950.000
101.174	349.000	1830.000
101.313	349.300	1720.000
101.476	349.700	1820.000
101.616	349.700	1860.000
101.755	350.600	1980.000
101.894	351.000	1840.000
102.034	351.300	2030.000
102.174	352.000	1940.000
102.315	352.300	1940.000
102.456	352.600	1880.000
102.595	352.900	1790.000
102.735	353.300	1940.000
102.874	353.900	1890.000
103.014	354.300	1920.000
103.153	354.600	1900.000
103.308	355.200	2010.000
103.448	355.600	1920.000
103.588	355.900	1880.000
103.728	356.200	1920.000
103.867	356.900	1980.000
104.006	357.200	1950.000
104.145	357.600	1920.000
104.284	357.900	1990.000
104.423	358.500	1820.000
104.564	358.800	1860.000
104.702	359.500	1690.000
104.865	359.800	1890.000
105.005	360.100	1840.000
105.146	360.800	1940.000
105.286	361.100	1900.000
105.426	361.500	2020.000
105.576	362.100	1940.000
105.716	362.100	1820.000
105.861	362.800	1920.000
105.999	363.100	1820.000
106.138	363.800	1950.000
106.283	364.100	1990.000
106.423	364.400	1890.000
106.561	364.800	1880.000
106.714	365.400	1980.000
106.854	365.700	1780.000
106.993	366.000	1720.000
107.132	366.400	1860.000
107.273	367.000	1910.000
107.412	367.400	2010.000
107.552	367.700	1900.000
107.717	368.400	1910.000
107.857	368.700	1930.000
107.997	369.000	1960.000
108.139	369.300	1900.000
108.279	370.000	1940.000
108.417	370.300	1790.000
108.556	371.000	1940.000
108.697	371.300	1950.000
108.838	371.600	1980.000
108.976	372.000	1970.000
109.116	372.600	1970.000
109.255	372.900	1830.000
109.394	373.200	1960.000
109.535	373.900	1800.000
109.674	373.900	2110.000
109.813	374.500	2010.000
109.952	374.900	1880.000
110.090	375.500	1910.000
110.230	375.800	1990.000
110.369	376.200	1990.000
110.510	376.500	2030.000
110.649	377.100	2020.000
110.790	377.500	2070.000
110.951	377.800	1950.000
111.091	378.500	1870.000
111.230	378.800	1970.000
111.370	379.100	1940.000
111.508	379.400	2010.000
111.647	380.100	1910.000
111.787	380.400	2100.000
111.926	380.400	1940.000
112.066	381.100	1970.000
112.205	381.800	1950.000
112.345	382.100	1920.000
112.484	382.400	1950.000
112.623	382.700	2020.000
112.763	383.400	1940.000
112.902	383.700	2010.000
113.041	384.100	2030.000
113.181	384.700	2020.000
113.320	385.000	2000.000
113.458	385.400	1950.000
113.597	385.700	1900.000
113.736	386.300	2050.000
113.876	386.700	1920.000
114.015	387.000	2090.000
114.153	387.300	2030.000
114.292	388.000	1930.000
114.431	388.300	1990.000
114.606	388.600	2020.000
114.746	388.900	1990.000
114.886	389.600	2030.000
115.028	389.900	2010.000
115.168	390.600	2010.000
115.307	390.900	1830.000
115.446	391.200	1870.000
115.585	391.800	1850.000
115.725	391.800	1970.000
115.871	392.500	2130.000
116.011	392.800	1990.000
116.151	393.500	2070.000
116.290	393.800	1960.000
116.430	394.100	2000.000
116.569	394.500	2030.000
116.711	394.800	1970.000
116.851	395.400	2030.000
116.999	395.800	2030.000
117.137	396.400	1980.000
117.276	396.800	1960.000
117.415	397.100	2060.000
117.555	397.400	2070.000
117.695	398.100	2040.000
117.836	398.400	2020.000
117.974	398.700	2100.000
118.114	399.100	2000.000
118.253	399.700	1980.000
118.392	400.000	2110.000
118.531	400.400	1920.000
118.671	401.000	2060.000
118.811	401.300	2010.000
118.970	401.700	2020.000
119.110	402.000	2010.000
119.250	402.600	1980.000
119.395	403.000	2040.000
119.535	403.300	2110.000
119.673	403.900	2010.000
119.813	404.300	2120.000
119.953	404.600	1890.000
120.092	405.300	2160.000
120.232	405.600	2010.000
120.372	405.900	2040.000
120.538	406.600	1990.000
120.677	406.900	2100.000
120.835	407.200	2100.000
120.981	407.900	2220.000
121.121	408.200	2000.000
121.271	408.500	2040.000
121.415	408.800	2020.000
121.564	409.500	2090.000
121.746	409.800	2120.000
121.966	410.500	2110.000
122.115	411.100	2090.000
122.265	411.500	2010.000
122.405	411.800	2150.000
122.545	412.400	2080.000
122.690	412.800	2100.000
122.840	413.100	2130.000
122.982	413.800	2080.000
123.146	414.100	2050.000
123.292	414.700	2020.000
123.443	415.000	2100.000
123.592	415.400	2090.000
123.751	416.000	2070.000
123.900	416.300	2100.000
124.051	416.700	2070.000
124.201	417.300	2020.000
124.363	417.300	1990.000
124.505	418.300	2180.000
124.656	418.600	2060.000
124.814	418.900	2050.000
124.958	419.600	2090.000
125.112	419.900	2110.000
125.259	420.200	2130.000
125.412	420.900	2090.000
125.563	421.200	2090.000
125.703	421.600	1970.000
125.880	422.200	2220.000
126.027	422.500	2210.000
126.172	423.200	2070.000
126.311	423.500	2100.000
126.452	423.800	2150.000
126.611	424.500	2220.000
126.762	424.800	2140.000
126.905	425.200	2150.000
127.045	425.900	2100.000
127.191	426.200	2130.000
127.337	426.500	2190.000
127.477	427.200	2220.000
127.616	427.500	2150.000
127.767	427.800	1970.000
127.906	428.100	2150.000
128.046	428.700	2060.000
128.186	429.100	2130.000
128.326	429.400	2130.000
128.465	430.100	2210.000
128.605	430.400	2100.000
128.745	430.700	2040.000
128.884	431.000	2110.000
129.024	431.700	2150.000
129.164	432.000	2070.000
129.303	432.300	2140.000
129.453	432.600	2130.000
129.592	433.300	2080.000
129.732	433.600	2220.000
129.872	433.900	2200.000
130.012	434.600	2090.000
130.151	434.900	2190.000
130.290	435.200	2100.000
130.430	435.600	2150.000
130.569	436.200	2350.000
130.709	436.500	2150.000
130.848	436.900	2350.000
130.988	437.200	2270.000
131.128	437.800	2070.000
131.267	438.200	2050.000
131.408	438.500	2160.000
131.547	439.100	2170.000
131.685	439.100	2240.000
131.824	439.800	2340.000
131.964	440.100	2230.000
132.104	440.800	2380.000
132.244	441.100	2030.000
132.384	441.400	2260.000
132.524	442.100	2220.000
132.664	442.400	2170.000
132.804	442.700	2120.000
132.943	443.000	2270.000
133.083	443.700	2240.000
133.223	444.100	2380.000
133.364	444.400	2380.000
133.504	444.700	2270.000
133.645	445.400	2300.000
133.785	445.700	2330.000
133.926	446.000	2210.000
134.067	446.300	2170.000
134.210	447.000	2140.000
134.351	447.300	2190.000
134.492	447.600	2370.000
134.632	448.300	2120.000
134.772	448.600	2260.000
134.911	448.900	2290.000
135.077	449.300	2290.000
135.216	449.900	2190.000
135.365	450.200	2230.000
135.504	450.600	2320.000
135.643	451.200	2140.000
135.784	451.600	2170.000
135.923	451.900	2160.000
136.065	452.500	2300.000
136.206	452.900	2440.000
136.347	453.200	2230.000
136.499	453.800	2520.000
136.640	454.200	2390.000
136.804	454.500	2200.000
136.948	455.100	2140.000
137.092	455.400	2260.000
137.247	455.800	2260.000
137.388	456.400	2280.000
137.532	456.800	2210.000
137.679	457.100	2320.000
137.819	457.400	2520.000
137.972	458.100	2520.000
138.136	458.700	2200.000
138.298	459.100	2120.000
138.439	459.400	2120.000
138.605	460.000	2220.000
138.751	460.400	2480.000
138.901	460.700	2300.000
139.070	461.300	2420.000
139.211	461.700	2480.000
139.359	462.300	2340.000
139.499	462.700	2240.000
139.649	463.000	2280.000
139.798	463.700	2280.000
139.951	464.000	2540.000
140.092	464.300	2260.000
140.234	465.000	2180.000
140.400	465.300	2370.000
140.540	465.600	2520.000
140.719	466.300	2270.000
140.868	466.600	2180.000
141.009	466.900	2250.000
141.161	467.600	2410.000
141.310	467.900	2450.000
141.455	468.500	2260.000
141.602	468.800	2320.000
141.749	469.100	2510.000
141.890	469.800	2410.000
142.033	470.100	2420.000
142.178	470.400	2440.000
142.331	471.100	2620.000
142.471	471.400	2340.000
142.613	471.800	2300.000
142.751	472.100	2330.000
142.891	472.700	2250.000
143.031	473.100	2390.000
143.172	473.400	2400.000
143.311	474.100	2450.000
143.452	474.400	2460.000
143.591	474.700	2430.000
143.731	475.100	2510.000
143.873	475.700	2150.000
144.012	476.000	2470.000
144.150	476.400	2280.000
144.288	476.700	2480.000
144.429	477.400	2460.000
144.568	477.700	2200.000
144.708	478.000	2480.000
144.847	478.300	2740.000
144.987	479.000	2550.000
145.129	479.300	2610.000
145.267	479.600	2330.000
145.406	480.300	2560.000
145.569	480.600	2470.000
145.709	481.000	2460.000
145.849	481.600	2460.000
145.987	481.900	2700.000
146.128	482.200	2480.000
146.266	482.600	2640.000
146.407	483.200	2590.000
146.546	483.600	2260.000
146.686	483.900	2310.000
146.826	484.200	2370.000
146.966	484.800	2480.000
147.106	485.200	2460.000
147.246	485.500	2480.000
147.385	485.800	2270.000
147.525	486.500	2340.000
147.664	486.800	2750.000
147.804	487.100	2500.000
147.944	487.800	2510.000
148.084	488.100	2550.000
148.223	488.400	2480.000
148.362	488.700	2740.000
148.501	489.400	2380.000
148.639	489.700	2530.000
148.779	490.000	2240.000
148.939	490.400	2650.000
149.078	491.000	2790.000
149.218	491.300	2660.000
149.357	491.700	2590.000
149.497	492.400	2370.000
149.635	492.700	2430.000
149.774	493.000	2790.000
149.913	493.300	2570.000
150.052	494.000	2910.000
150.191	494.300	2610.000
150.332	494.600	2730.000
150.472	495.000	2720.000
150.612	495.600	2420.000
150.750	495.900	2280.000
150.889	496.300	2400.000
151.027	496.900	2470.000
151.167	497.300	2730.000
151.308	497.600	2400.000
151.449	497.900	2590.000
151.588	498.600	2630.000
151.752	498.900	2460.000
151.891	499.500	2920.000
152.041	499.800	2640.000
152.180	500.100	2500.000
152.320	500.800	2480.000
152.459	501.200	2590.000
152.599	501.500	2410.000
152.737	501.800	2670.000
152.877	501.800	2740.000
153.015	502.500	2310.000
153.218	503.400	2710.000
153.357	503.800	2570.000
153.498	504.100	2700.000
153.636	504.400	2450.000
153.776	504.800	2420.000
153.914	505.100	3020.000
154.053	505.700	2590.000
154.191	506.100	2710.000
154.353	506.700	2810.000
154.492	507.000	2600.000
154.642	507.700	2210.000
154.781	507.700	2630.000
154.921	508.300	2560.000
155.062	508.700	2670.000
155.201	509.300	2310.000
155.341	509.600	2710.000
155.500	510.000	2310.000
155.639	510.600	2600.000
155.777	510.900	2760.000
155.917	511.200	2890.000
156.058	511.600	2830.000
156.197	512.300	2530.000
156.337	512.600	2640.000
156.548	513.200	2720.000
156.688	513.600	3040.000
156.871	514.200	2900.000
157.009	514.500	2710.000
157.149	514.900	2610.000
157.289	515.500	2760.000
157.428	515.800	2630.000
157.567	516.100	2990.000
157.707	516.500	2620.000
157.846	517.100	2790.000
157.985	517.500	2730.000
158.124	517.800	2740.000
158.263	518.100	2770.000
158.404	518.800	2800.000
158.543	519.100	2780.000
158.683	519.400	2570.000
158.822	519.800	2540.000
158.961	520.400	2750.000
159.100	520.700	2830.000
159.292	521.300	2880.000
159.431	521.700	2690.000
159.570	522.000	2680.000
159.710	522.300	2450.000
159.850	523.000	2650.000
159.990	523.300	2820.000
160.129	523.700	2380.000
160.353	524.300	2510.000
160.492	525.000	3060.000
160.631	525.300	2700.000
160.840	526.000	2940.000
160.980	526.300	2910.000
161.121	526.900	2770.000
161.260	527.300	3150.000
161.400	527.600	2850.000
161.539	527.900	2860.000
161.678	528.600	2610.000
161.817	528.900	2930.000
161.955	529.200	2990.000
162.095	529.500	2860.000
162.236	530.200	2900.000
162.376	530.500	2990.000
162.516	530.900	2940.000
162.657	531.200	2750.000
162.795	531.800	2750.000
162.935	532.100	2560.000
163.076	532.500	2940.000
163.214	532.800	2670.000
163.354	533.400	2640.000
163.492	533.800	3110.000
163.632	534.100	2870.000
163.770	534.700	2880.000
163.909	535.100	2870.000
164.049	535.400	2800.000
164.189	535.700	2980.000
164.329	536.400	2800.000
164.468	536.700	2790.000
164.608	537.000	3030.000
164.747	537.300	2770.000
164.887	538.000	3090.000
165.028	538.300	2750.000
165.168	538.300	2860.000
165.308	539.300	2890.000
165.449	539.600	3060.000
165.590	540.000	3050.000
165.730	540.300	3070.000
165.869	540.600	3050.000
166.009	541.200	2980.000
166.150	541.600	3360.000
166.291	541.900	3070.000
166.432	542.600	2840.000
166.571	542.900	3150.000
166.710	543.200	3120.000
166.848	543.900	2950.000
166.989	544.200	3250.000
167.128	544.500	3070.000
167.267	544.900	3020.000
167.407	545.500	3220.000
167.547	545.800	3140.000
167.686	546.200	3120.000
167.825	546.500	3010.000
167.966	547.200	2770.000
168.105	547.500	3100.000
168.243	547.800	2980.000
168.383	548.400	2930.000
168.524	548.800	3220.000
168.665	549.100	2950.000
168.805	549.400	3180.000
168.945	550.100	2970.000
169.092	550.400	3150.000
169.235	550.700	2900.000
169.376	551.400	3120.000
169.516	551.700	3140.000
169.657	552.000	2960.000
169.798	552.300	3060.000
169.937	553.000	3100.000
170.076	553.300	3070.000
170.217	553.600	2980.000
170.383	554.300	3080.000
170.559	554.600	3130.000
170.697	555.000	3140.000
170.837	555.600	3140.000
170.988	555.900	3090.000
171.126	556.300	3150.000
171.266	556.900	3020.000
171.406	556.900	3030.000
171.546	557.600	3140.000
171.695	558.200	3070.000
171.930	558.900	3120.000
172.069	559.200	3010.000
172.291	559.800	3200.000
172.430	560.200	3240.000
172.571	560.800	3140.000
172.712	561.100	3120.000
172.852	561.500	2890.000
172.992	561.800	2970.000
173.132	562.100	3210.000
173.297	562.800	2970.000
173.434	563.100	3100.000
173.574	563.700	3190.000
173.713	564.000	3280.000
173.854	564.400	3130.000
173.993	564.700	3170.000
174.133	565.400	3160.000
174.273	565.700	3120.000
174.413	566.000	3100.000
174.553	566.300	3030.000
174.693	567.000	3230.000
174.833	567.300	3200.000
174.973	567.600	3140.000
175.114	568.300	3260.000
175.254	568.300	3030.000
175.394	568.900	3130.000
175.535	569.600	3300.000
175.675	569.900	3170.000
175.815	570.300	3210.000
175.955	570.600	3250.000
176.095	571.200	2930.000
176.234	571.600	3150.000
176.374	571.900	3240.000
176.515	572.200	3320.000
176.654	572.900	2960.000
176.795	573.200	3310.000
176.934	573.500	3140.000
177.074	574.200	3160.000
177.215	574.500	2890.000
177.355	574.800	3400.000
177.494	575.100	3000.000
177.634	575.100	3130.000
177.776	576.100	3070.000
177.916	576.500	3210.000
178.057	576.800	3370.000
178.196	577.100	3240.000
178.336	577.800	3400.000
178.476	578.100	3280.000
178.617	578.400	3170.000
178.758	579.000	3240.000
178.898	579.400	3510.000
179.038	579.700	3020.000
179.179	580.300	3060.000
179.321	580.700	3340.000
179.459	581.000	3210.000
179.601	581.300	3110.000
179.740	581.600	3340.000
179.880	582.200	3090.000
180.019	582.500	3400.000
180.159	582.700	3140.000
180.299	583.000	3020.000
180.440	583.400	3150.000
180.580	583.600	3220.000
180.719	584.000	3240.000
180.860	584.100	3190.000
181.000	584.300	3210.000
181.141	584.400	3260.000
181.293	584.500	3280.000
181.435	584.600	3280.000
181.574	584.700	3180.000
181.715	584.700	2980.000
181.854	584.700	3540.000
181.994	584.700	3330.000
182.134	584.700	3160.000
182.275	584.700	3090.000
182.415	584.600	3190.000
182.555	584.400	3430.000
182.695	583.900	3490.000
182.835	583.700	3050.000
182.976	583.500	3230.000
183.114	583.300	2900.000
183.255	582.800	3250.000
183.396	582.500	3270.000
183.534	582.200	2990.000
183.673	581.400	3030.000
