Mon, Jul 24, 2017	5:16 PM
 Notes: HOAc_6.8E-08_15s_724_2 masses
 waiting time: 50.000
 time(ms)	 temp (K)	 MS1=61.297	 MS2=44.784	 MS3=28.250	 MS4=44.784	 MS5=61.297	 MS6=31.397	 MS7=68.640	 MS8=90.000
0.000	100.400	47000.000	102460.000
0.322	100.400	47600.000	104340.000
0.636	100.400	47100.000	106010.000
0.982	100.300	48100.000	106640.000
1.298	100.300	48500.000	107990.000
1.615	100.300	47400.000	108200.000
1.930	100.300	49500.000	108900.000
2.248	100.300	48700.000	109480.000
2.564	100.200	49300.000	110380.000
2.881	100.200	49400.000	110190.000
3.196	100.200	48800.000	110090.000
3.513	100.100	49500.000	111100.000
3.830	100.100	49000.000	110900.000
4.146	100.100	49400.000	110400.000
4.463	100.100	48900.000	111400.000
4.779	100.100	49100.000	112050.000
5.098	100.100	49100.000	110370.000
5.416	100.000	49900.000	110830.000
5.733	100.000	49200.000	112340.000
6.050	100.000	49700.000	111440.000
6.368	100.000	49400.000	112340.000
6.685	99.900	49000.000	112230.000
7.003	99.900	49000.000	112320.000
7.319	99.900	49100.000	111290.000
7.637	99.900	48800.000	111180.000
7.952	100.000	49100.000	111190.000
8.270	100.100	48900.000	117170.000
8.585	100.100	49600.000	121300.000
8.902	100.300	49400.000	116830.000
9.219	100.500	49600.000	112080.000
9.535	100.700	48600.000	112910.000
9.852	100.900	48600.000	112490.000
10.168	101.200	49400.000	115140.000
10.485	101.700	49100.000	118590.000
10.802	102.200	48700.000	119540.000
11.119	102.700	48900.000	119490.000
11.434	103.100	49600.000	120880.000
11.750	104.100	49700.000	122680.000
12.068	104.600	48800.000	122050.000
12.384	105.500	49100.000	123240.000
12.700	106.400	49200.000	121950.000
13.016	107.400	49300.000	121230.000
13.333	108.500	49900.000	121650.000
13.651	109.600	49300.000	122860.000
13.967	110.700	49700.000	123230.000
14.285	111.900	50000.000	124640.000
14.599	113.000	50200.000	126310.000
14.919	113.900	54800.000	126440.000
15.234	115.100	58700.000	127540.000
15.551	116.300	59600.000	128980.000
15.866	117.500	59800.000	130460.000
16.180	118.600	60000.000	130080.000
16.497	119.800	58900.000	131350.000
16.815	121.000	59700.000	132140.000
17.132	121.700	59600.000	131730.000
17.446	122.900	59500.000	132640.000
17.762	123.600	59300.000	133420.000
18.078	125.000	59400.000	133140.000
18.393	126.100	59700.000	133140.000
18.710	127.100	58600.000	134580.000
19.024	128.100	58800.000	133650.000
19.339	128.700	58700.000	135380.000
19.655	129.700	57300.000	133670.000
19.971	130.700	57200.000	134800.000
20.288	131.600	55600.000	134430.000
20.602	132.500	53800.000	134390.000
20.919	133.500	53100.000	134040.000
21.233	134.400	51900.000	133590.000
21.550	135.300	50900.000	135100.000
21.865	136.200	51000.000	133570.000
22.180	137.100	50300.000	134490.000
22.496	137.700	50400.000	134470.000
22.812	138.600	50200.000	135280.000
23.129	139.500	50100.000	135190.000
23.445	140.500	50400.000	135390.000
23.761	141.400	51000.000	135350.000
24.075	142.300	51200.000	134480.000
24.391	143.200	51500.000	136840.000
24.706	143.800	54400.000	134330.000
25.023	144.800	56900.000	134910.000
25.340	145.800	59200.000	134380.000
25.657	146.700	59600.000	137380.000
25.972	147.400	61800.000	138670.000
26.288	148.600	66500.000	139640.000
26.603	149.600	67600.000	138530.000
26.918	150.300	68700.000	136640.000
27.233	151.300	66300.000	136790.000
27.551	152.200	64000.000	135300.000
27.865	153.200	61900.000	137840.000
28.182	154.200	61700.000	135650.000
28.497	155.200	60900.000	136330.000
28.814	156.200	60900.000	136900.000
29.129	157.200	62100.000	137150.000
29.445	157.800	63100.000	137360.000
29.760	158.800	67400.000	137910.000
30.075	159.800	71000.000	138220.000
30.390	160.800	77300.000	137410.000
30.706	161.800	83600.000	141730.000
31.020	162.400	90000.000	141410.000
31.336	163.700	99100.000	145180.000
31.652	164.700	110300.000	147410.000
31.969	165.400	129000.000	151050.000
32.287	166.300	148100.000	154900.000
32.603	167.300	174600.000	160850.000
32.922	168.300	208100.000	165130.000
33.237	169.300	248600.000	172150.000
33.554	170.200	298500.000	183050.000
33.868	171.200	360900.000	191040.000
34.184	171.800	437200.000	204450.000
34.500	172.800	531000.000	218120.000
34.818	173.800	634100.000	230360.000
35.134	174.700	753100.000	244470.000
35.450	175.700	884800.000	263250.000
35.766	176.700	1046600.000	284860.000
36.084	177.600	1219300.000	307000.000
36.400	178.600	1380400.000	327360.000
36.716	179.200	1517700.000	343570.000
37.031	180.200	1576400.000	346490.000
37.348	181.200	1564800.000	338320.000
37.664	182.100	1449300.000	327120.000
37.981	183.100	1282300.000	306530.000
38.299	184.100	1118000.000	289020.000
38.614	185.000	965500.000	273820.000
38.932	185.700	837100.000	261010.000
39.248	187.000	727000.000	251350.000
39.565	187.600	621600.000	242960.000
39.885	188.600	527200.000	230890.000
40.203	189.600	442000.000	221450.000
40.519	190.500	368300.000	211340.000
40.835	191.500	312000.000	204870.000
41.153	192.500	268700.000	198080.000
41.469	193.500	239200.000	194270.000
41.787	194.400	219200.000	189520.000
42.103	195.400	204500.000	187850.000
42.421	196.100	196400.000	184490.000
42.737	197.000	184600.000	186360.000
43.054	198.000	178300.000	182150.000
43.370	199.000	172800.000	180640.000
43.687	200.000	167900.000	179740.000
44.004	201.000	162000.000	175090.000
44.321	201.900	157400.000	174590.000
44.639	202.900	153400.000	173290.000
44.955	203.500	149400.000	172290.000
45.273	204.500	145200.000	172160.000
45.589	205.500	142100.000	170980.000
45.906	206.500	139900.000	170420.000
46.223	207.400	136300.000	168960.000
46.538	208.400	135500.000	169340.000
46.854	209.400	133900.000	167590.000
47.171	210.000	132100.000	166540.000
47.489	211.000	127700.000	168150.000
47.806	212.000	126300.000	166350.000
48.122	212.900	122500.000	164940.000
48.440	213.900	123200.000	164750.000
48.758	214.900	121000.000	165120.000
49.073	215.900	119200.000	161970.000
49.390	216.800	118700.000	163100.000
49.708	217.800	117300.000	162090.000
50.024	218.800	113300.000	162180.000
50.341	219.800	112700.000	163280.000
50.659	220.400	111500.000	160610.000
50.975	221.400	109800.000	160680.000
51.293	222.400	110700.000	159680.000
51.610	223.300	109800.000	160140.000
51.928	224.300	107400.000	159570.000
52.244	225.300	107400.000	159860.000
52.561	226.300	106900.000	159880.000
52.878	227.200	106600.000	159790.000
53.194	227.900	105600.000	158380.000
53.513	228.900	104900.000	158810.000
53.828	229.800	103600.000	157930.000
54.145	230.800	103200.000	156870.000
54.462	231.800	102900.000	157660.000
54.778	232.800	102400.000	157830.000
55.096	233.100	101400.000	157160.000
55.413	234.400	100900.000	155910.000
55.730	235.400	101600.000	156370.000
56.047	236.400	99500.000	155470.000
56.362	237.300	99400.000	156210.000
56.678	238.300	99500.000	156080.000
56.994	239.300	100300.000	155560.000
57.310	240.200	98900.000	156020.000
57.625	240.900	98300.000	156200.000
57.941	241.900	97900.000	154980.000
58.257	242.900	98000.000	154630.000
58.573	243.800	98100.000	154640.000
58.890	244.800	98500.000	154540.000
59.205	245.800	97700.000	156330.000
59.519	246.800	97200.000	154070.000
59.834	247.700	98200.000	153820.000
60.151	248.700	97700.000	155040.000
60.466	249.400	97300.000	154030.000
60.781	250.400	96800.000	154520.000
61.097	251.300	96300.000	154410.000
61.411	252.300	96900.000	154450.000
61.729	253.300	95800.000	153440.000
62.044	254.200	94300.000	152320.000
62.360	255.200	94700.000	153080.000
62.677	256.200	93100.000	151930.000
62.991	257.200	92300.000	152940.000
63.306	257.800	91900.000	151280.000
63.621	258.800	90100.000	152510.000
63.938	259.800	90400.000	151640.000
64.252	260.700	90400.000	152610.000
64.567	261.700	88600.000	151070.000
64.882	262.700	88600.000	151140.000
65.199	263.700	88600.000	150870.000
65.514	264.300	88500.000	150380.000
65.830	265.300	87200.000	151080.000
66.146	266.300	87100.000	150650.000
66.461	267.300	86700.000	150660.000
66.777	268.200	85800.000	149890.000
67.092	269.200	85100.000	149940.000
67.407	269.800	87100.000	149760.000
67.724	270.800	84100.000	149890.000
68.038	271.800	83600.000	149380.000
68.356	272.800	83200.000	148310.000
68.671	273.700	81300.000	149000.000
68.988	274.700	81100.000	147910.000
69.303	275.700	81500.000	150440.000
69.619	276.300	80200.000	148070.000
69.935	277.600	80400.000	149850.000
70.254	278.600	80300.000	148160.000
70.570	279.200	79900.000	150070.000
70.886	280.200	79800.000	148300.000
71.203	281.200	79300.000	147320.000
71.520	282.200	78600.000	147660.000
71.837	283.100	79000.000	146910.000
72.153	283.800	78600.000	146900.000
72.470	285.100	78500.000	145650.000
72.786	286.100	78700.000	147120.000
73.102	286.700	78000.000	146760.000
73.417	287.800	77800.000	146200.000
73.733	288.800	79100.000	147850.000
74.049	289.700	77300.000	148440.000
74.366	290.700	77900.000	146460.000
74.682	291.300	78000.000	147560.000
74.998	292.600	78400.000	146950.000
75.315	293.600	77400.000	146970.000
75.631	294.300	77800.000	145840.000
75.947	295.200	78000.000	144970.000
76.262	296.200	77100.000	146070.000
76.577	297.200	76700.000	144080.000
76.893	298.200	75900.000	147020.000
77.210	298.800	77100.000	145670.000
77.526	300.100	76900.000	146420.000
77.843	301.100	75200.000	146990.000
78.161	301.700	76200.000	147810.000
78.477	302.700	76500.000	147210.000
78.794	303.700	76600.000	145380.000
79.109	304.700	75500.000	144740.000
79.426	305.600	75200.000	147910.000
79.743	306.300	76800.000	147760.000
80.059	307.600	75500.000	144240.000
80.375	308.200	76200.000	145260.000
80.692	309.200	75500.000	145180.000
81.009	310.200	76400.000	144780.000
81.326	311.200	74100.000	145610.000
81.642	312.100	75800.000	144530.000
81.958	312.800	74700.000	144960.000
82.275	314.100	75200.000	144830.000
82.592	315.100	74600.000	144500.000
82.908	315.700	75400.000	143890.000
83.225	316.700	75300.000	142830.000
83.543	317.700	74500.000	144710.000
83.859	318.600	74100.000	146740.000
84.176	319.600	73900.000	145930.000
84.493	320.600	74600.000	146980.000
84.810	321.600	75300.000	145220.000
85.129	322.500	75200.000	146830.000
85.444	323.200	74800.000	143790.000
85.762	324.200	75100.000	144570.000
86.078	325.100	75000.000	144280.000
86.395	326.100	76300.000	146050.000
86.713	327.100	75600.000	145380.000
87.031	328.100	74600.000	142390.000
87.348	328.800	74500.000	145440.000
87.666	330.100	76200.000	145190.000
87.983	331.000	75800.000	143210.000
88.299	332.000	76200.000	145590.000
88.615	332.700	76700.000	144160.000
88.932	333.700	76300.000	142840.000
89.249	334.600	75700.000	144880.000
89.566	335.600	77300.000	144870.000
89.885	336.600	78100.000	145880.000
90.202	337.600	77300.000	145320.000
90.516	338.200	77500.000	145610.000
90.834	339.200	77500.000	145350.000
91.151	340.100	77400.000	144030.000
91.468	341.100	78400.000	144700.000
91.785	342.100	78200.000	145930.000
92.101	343.100	77700.000	145310.000
92.420	344.000	77600.000	146320.000
92.737	345.000	78400.000	143900.000
93.054	346.000	77600.000	144360.000
93.369	347.000	77900.000	146220.000
93.685	347.700	77400.000	144980.000
94.001	348.600	78700.000	146080.000
94.319	349.600	77800.000	145440.000
94.635	350.600	77600.000	146070.000
94.953	351.600	77100.000	144760.000
95.271	352.600	77800.000	142480.000
95.586	353.200	78000.000	146610.000
95.904	354.500	79100.000	143820.000
96.219	355.200	78500.000	146450.000
96.536	356.100	79200.000	147470.000
96.851	357.100	78300.000	147050.000
97.168	358.100	79100.000	146630.000
97.485	359.100	78400.000	145200.000
97.799	360.100	79000.000	145050.000
98.117	361.000	78200.000	145220.000
98.432	362.000	78600.000	146480.000
98.748	363.000	78400.000	146850.000
99.063	363.700	78400.000	146030.000
99.379	364.600	78400.000	146890.000
99.694	365.600	78700.000	146210.000
100.009	366.600	78100.000	146040.000
100.324	367.600	77300.000	146320.000
100.640	368.600	77500.000	145970.000
100.954	369.500	77500.000	145900.000
101.269	370.200	76500.000	145870.000
101.584	371.200	77000.000	147140.000
101.901	372.100	77700.000	146330.000
102.217	373.100	76900.000	146260.000
102.533	374.100	76600.000	146600.000
102.851	375.000	76400.000	147500.000
103.165	376.000	76600.000	158380.000
103.536	377.000	76700.000	146120.000
103.853	378.000	76000.000	148200.000
104.167	378.900	75700.000	149370.000
104.483	379.900	76700.000	148430.000
104.798	380.600	75900.000	148860.000
105.116	381.600	75500.000	148610.000
105.431	382.500	75400.000	148580.000
105.747	383.500	74000.000	148990.000
106.063	384.500	74600.000	147900.000
106.380	385.400	74400.000	147670.000
106.696	386.400	73500.000	149130.000
107.013	387.400	75700.000	150420.000
107.328	388.400	74200.000	149870.000
107.644	389.000	73800.000	151910.000
107.960	390.000	74200.000	151950.000
108.274	390.600	74500.000	153830.000
108.590	391.900	73500.000	153010.000
108.906	392.900	74000.000	153490.000
109.223	393.900	73100.000	154070.000
109.539	394.500	73400.000	155120.000
109.855	395.500	71900.000	155760.000
110.171	396.500	72800.000	154710.000
110.488	397.500	71900.000	158030.000
110.804	398.400	73800.000	158970.000
111.123	399.400	73400.000	160780.000
111.439	400.400	72800.000	161010.000
111.755	401.000	72900.000	162740.000
112.069	402.300	73200.000	165120.000
112.386	403.000	72900.000	167520.000
112.702	404.000	72900.000	170020.000
113.019	404.900	73700.000	170930.000
113.335	405.900	71700.000	175070.000
113.652	406.900	72700.000	176700.000
113.969	407.900	73000.000	179170.000
114.286	408.800	71900.000	184260.000
114.603	409.800	71800.000	187480.000
114.918	410.800	72700.000	191430.000
115.236	411.400	72600.000	195370.000
115.553	412.400	73700.000	200260.000
115.868	413.400	72200.000	205070.000
116.185	414.300	73600.000	210080.000
116.500	415.300	73000.000	215870.000
116.816	415.900	73300.000	221730.000
117.132	417.200	71800.000	229870.000
117.448	418.200	72600.000	234450.000
117.764	418.900	71200.000	243470.000
118.081	419.800	71300.000	251180.000
118.399	420.800	72600.000	260970.000
118.714	421.700	72900.000	272280.000
119.031	422.700	73000.000	288870.000
119.346	423.700	72600.000	303980.000
119.663	424.600	73100.000	328730.000
119.980	425.300	74000.000	354990.000
120.296	426.300	74000.000	393660.000
120.613	426.900	75100.000	446000.000
120.927	428.200	78300.000	525090.000
121.245	429.200	78300.000	670460.000
121.561	430.200	79100.000	989270.000
121.877	431.100	81200.000	1385190.000
122.193	431.800	84000.000	1210110.000
122.511	432.800	82000.000	1100320.000
122.828	433.700	80800.000	1039310.000
123.145	434.700	81600.000	1009720.000
123.461	435.700	80500.000	990050.000
123.780	436.600	81100.000	961400.000
124.096	437.600	80000.000	914520.000
124.414	438.600	79600.000	794130.000
124.731	439.500	78600.000	568180.000
125.049	440.500	77600.000	422890.000
125.368	441.100	71900.000	364500.000
125.685	442.100	72400.000	331840.000
126.002	443.100	72300.000	313010.000
126.319	444.100	71500.000	299260.000
126.636	445.000	72500.000	285070.000
126.954	446.000	70100.000	276520.000
127.271	446.900	72300.000	267320.000
127.588	447.900	70600.000	262650.000
127.905	448.900	71000.000	259240.000
128.222	449.500	70900.000	253920.000
128.540	450.500	71100.000	253230.000
128.857	451.200	70000.000	246100.000
129.175	452.400	70400.000	242960.000
129.491	453.400	69400.000	241010.000
129.809	454.100	69600.000	239670.000
130.126	455.400	69700.000	240560.000
130.443	456.000	70400.000	237270.000
130.760	457.300	69500.000	234770.000
131.077	458.000	69300.000	233260.000
131.394	459.000	67700.000	231900.000
131.711	460.000	68800.000	232580.000
132.030	460.900	70300.000	228690.000
132.346	461.900	69800.000	231000.000
132.661	462.900	69300.000	228610.000
132.977	463.800	69200.000	228240.000
133.295	464.800	68400.000	225790.000
133.612	465.500	70100.000	222970.000
133.927	466.400	68800.000	224010.000
134.243	467.400	68800.000	222920.000
134.560	468.400	69000.000	222430.000
134.878	469.400	67400.000	221630.000
135.196	470.300	68500.000	222290.000
135.510	471.300	69200.000	220790.000
135.828	472.300	68300.000	219540.000
136.143	473.300	67500.000	220610.000
136.460	473.900	68400.000	219580.000
136.776	474.900	67800.000	219020.000
137.093	475.900	68000.000	217460.000
137.409	476.800	67400.000	218100.000
137.725	477.800	67600.000	218550.000
138.041	478.500	67700.000	217410.000
138.357	479.700	67100.000	214980.000
138.673	480.400	68200.000	215560.000
138.989	481.400	66200.000	213190.000
139.305	482.300	66600.000	217230.000
139.620	483.300	66900.000	214470.000
139.938	484.300	66700.000	212700.000
140.254	485.200	67200.000	212590.000
140.570	486.200	65600.000	212630.000
140.886	487.200	67500.000	211680.000
141.200	487.800	67200.000	213540.000
141.518	488.800	67000.000	209900.000
141.834	489.800	68200.000	211460.000
142.149	490.700	65900.000	209290.000
142.465	491.700	65800.000	208300.000
142.780	492.700	66100.000	206410.000
143.096	493.400	66700.000	207970.000
143.411	494.300	65600.000	205440.000
143.728	495.300	67000.000	204260.000
144.043	496.300	66900.000	205690.000
144.358	497.300	68500.000	206280.000
144.677	498.200	67600.000	205700.000
144.994	499.200	66200.000	205260.000
145.311	500.200	67200.000	203810.000
145.629	501.200	67100.000	200330.000
145.945	502.100	66500.000	199290.000
146.262	502.800	66100.000	199290.000
146.578	503.800	65700.000	196510.000
146.894	504.700	66500.000	197930.000
147.209	505.700	66200.000	197800.000
147.527	506.700	65700.000	196330.000
147.843	507.600	67200.000	195140.000
148.158	508.600	67300.000	193850.000
148.473	509.300	66300.000	196150.000
148.790	510.300	66500.000	194420.000
149.106	511.200	66500.000	195470.000
149.423	511.900	65200.000	193080.000
149.741	513.200	65700.000	191670.000
150.058	514.200	65100.000	192440.000
150.374	515.100	66400.000	190470.000
150.688	515.800	66900.000	190350.000
151.005	517.000	64000.000	190080.000
151.320	517.700	66200.000	189410.000
151.634	518.700	64200.000	186940.000
151.951	519.600	65500.000	187310.000
152.268	520.600	65300.000	188240.000
152.585	521.600	64700.000	185940.000
152.901	522.200	65300.000	184500.000
153.220	523.500	65700.000	184450.000
153.536	524.500	64900.000	184560.000
153.852	525.100	66100.000	183220.000
154.169	526.100	64600.000	183960.000
154.485	527.000	66800.000	183770.000
154.802	528.000	63900.000	182500.000
155.119	529.000	65100.000	183280.000
155.436	530.000	64700.000	181130.000
155.752	530.900	64800.000	179560.000
156.068	531.900	64300.000	182200.000
156.385	532.900	65200.000	180390.000
156.703	533.500	64400.000	180700.000
157.021	534.500	65600.000	176550.000
157.336	535.400	64300.000	179530.000
157.655	536.400	64000.000	177790.000
157.970	537.400	64800.000	177390.000
158.287	538.300	65100.000	177900.000
158.603	539.300	64200.000	177240.000
158.920	540.000	63700.000	177670.000
159.238	540.900	64700.000	176170.000
159.555	541.900	65600.000	176130.000
159.872	542.900	62700.000	175250.000
160.189	543.800	63200.000	173960.000
160.505	544.800	63400.000	175220.000
160.821	545.800	63200.000	175230.000
161.138	546.700	62400.000	175730.000
161.455	547.700	63500.000	172550.000
161.773	548.300	64200.000	174140.000
162.090	549.300	63600.000	171280.000
162.405	550.300	63500.000	172300.000
162.720	551.200	62400.000	172180.000
163.037	552.200	64000.000	172600.000
163.355	553.200	63400.000	172690.000
163.673	554.200	63100.000	172060.000
163.989	555.200	62900.000	171620.000
164.307	556.100	62300.000	169430.000
164.623	556.800	64400.000	170650.000
164.940	557.700	62900.000	169030.000
165.256	558.700	61800.000	171260.000
165.573	559.700	62100.000	169540.000
165.889	560.600	63600.000	172360.000
166.206	561.600	63000.000	170620.000
166.522	562.600	61900.000	167770.000
166.841	563.500	61900.000	168480.000
167.158	564.200	62100.000	168710.000
167.475	565.100	61500.000	166570.000
167.792	566.100	62700.000	167480.000
168.110	567.100	62200.000	169130.000
168.426	568.000	61900.000	167970.000
168.744	569.000	62200.000	164880.000
169.058	570.000	62300.000	166030.000
169.375	570.600	61900.000	169080.000
169.693	571.600	62400.000	167900.000
170.010	572.600	61900.000	163180.000
170.328	573.500	62100.000	169510.000
170.644	574.500	61800.000	167120.000
170.961	575.500	62000.000	167350.000
171.277	576.500	62900.000	162670.000
171.594	577.100	60600.000	164550.000
171.912	578.400	61400.000	172600.000
172.229	579.000	62500.000	167320.000
172.546	580.000	62000.000	167770.000
172.864	581.000	61900.000	166590.000
173.181	581.900	63300.000	165270.000
173.498	582.900	62700.000	165600.000
173.814	583.900	61900.000	165010.000
174.130	584.800	61800.000	168240.000
174.445	585.800	61900.000	168200.000
174.761	586.800	61600.000	170020.000
175.078	587.400	62200.000	167190.000
175.393	588.400	62600.000	166030.000
175.709	589.300	61400.000	166230.000
176.026	590.300	62500.000	165650.000
176.341	591.300	61200.000	167690.000
176.657	592.200	61700.000	166050.000
176.972	593.200	61800.000	166400.000
177.289	594.100	61100.000	165030.000
177.604	594.800	62400.000	165900.000
177.921	595.800	60500.000	166970.000
178.236	596.700	61700.000	165670.000
178.551	597.700	62300.000	165060.000
178.866	598.300	61000.000	166430.000
179.182	599.600	60300.000	166770.000
179.497	600.600	61000.000	163130.000
179.812	601.200	61200.000	165590.000
180.129	602.200	60900.000	164850.000
180.444	603.200	61300.000	165440.000
180.761	604.100	60700.000	164630.000
181.078	605.100	60300.000	164800.000
181.393	606.000	60700.000	166200.000
