Wed, Jul 19, 2017	4:43 PM
 Notes: HOAc_7E-09_40 s_10 K TPD_719
 waiting time: 50.000
 time(ms)	 temp (K)	 MS1=61.297	 MS2=17.903	 MS3=28.250	 MS4=44.784	 MS5=61.297	 MS6=31.397	 MS7=68.640	 MS8=90.000
0.000	94.600	22120.000
0.165	94.600	22200.000
0.322	94.500	22050.000
0.481	94.600	22880.000
0.646	94.600	23130.000
0.817	94.600	23250.000
0.986	94.500	24000.000
1.156	94.500	23460.000
1.328	94.500	23480.000
1.490	94.500	23660.000
1.697	94.500	23870.000
1.876	94.500	24150.000
2.059	94.500	24230.000
2.246	94.500	24470.000
2.411	94.500	24120.000
2.577	94.500	24580.000
2.746	94.500	24540.000
2.909	94.500	24680.000
3.076	94.500	24550.000
3.240	94.500	24360.000
3.403	94.500	24030.000
3.589	94.500	23970.000
3.752	94.600	24080.000
3.916	94.500	24890.000
4.085	94.500	24290.000
4.249	94.500	24740.000
4.427	94.500	24260.000
4.597	94.500	25010.000
4.761	94.500	24470.000
4.934	94.500	23840.000
5.098	94.500	24330.000
5.270	94.500	24820.000
5.444	94.500	24620.000
5.608	94.500	24630.000
5.780	94.500	24400.000
5.944	94.500	24780.000
6.120	94.500	24150.000
6.284	94.600	23550.000
6.448	94.600	24350.000
6.611	94.500	24300.000
6.776	94.500	23960.000
6.939	94.500	24050.000
7.103	94.500	23940.000
7.270	94.500	25030.000
7.443	94.600	72140.000
7.607	94.700	36070.000
7.769	94.800	35060.000
7.934	94.900	34000.000
8.107	95.100	32070.000
8.270	95.400	29530.000
8.433	95.600	28310.000
8.597	96.100	27420.000
8.762	96.500	27730.000
8.925	96.900	29620.000
9.100	97.800	58980.000
9.273	98.800	84570.000
9.437	99.400	75280.000
9.601	100.900	53600.000
9.774	101.800	39610.000
9.941	103.700	33040.000
10.109	104.800	30190.000
10.275	107.200	29140.000
10.440	109.800	28830.000
10.610	111.200	29060.000
10.782	114.200	27710.000
10.947	115.700	27870.000
11.117	118.900	27570.000
11.280	120.600	27250.000
11.444	123.900	26610.000
11.612	125.500	26700.000
11.776	127.200	26420.000
11.940	130.500	26860.000
12.104	132.100	26290.000
12.266	135.300	26770.000
12.449	138.300	26970.000
12.613	139.800	28050.000
12.782	141.200	28690.000
12.946	144.000	29640.000
13.115	146.600	32620.000
13.279	147.900	35380.000
13.444	150.400	38960.000
13.607	151.600	45480.000
13.771	153.900	52380.000
13.953	155.000	62860.000
14.116	157.100	74160.000
14.281	158.200	86620.000
14.445	160.200	100630.000
14.609	161.200	113420.000
14.773	163.200	124190.000
14.937	164.100	131720.000
15.101	166.000	135210.000
15.264	166.900	137150.000
15.429	168.800	132540.000
15.594	169.700	125760.000
15.770	171.500	114270.000
15.938	173.300	100970.000
16.102	174.200	91870.000
16.266	175.100	86680.000
16.430	176.900	83840.000
16.594	177.900	82210.000
16.759	179.700	80180.000
16.922	180.600	79170.000
17.098	182.500	74350.000
17.262	184.300	71310.000
17.426	185.300	68920.000
17.591	187.200	64940.000
17.774	188.200	62180.000
17.939	189.200	59870.000
18.124	191.200	57440.000
18.312	193.200	56120.000
18.476	195.300	55960.000
18.640	196.300	55620.000
18.820	198.400	54540.000
18.995	199.500	54340.000
19.162	201.600	54590.000
19.336	202.700	54040.000
19.499	204.900	53150.000
19.664	206.000	54100.000
19.828	207.100	52720.000
19.993	209.300	52890.000
20.156	211.500	52600.000
20.321	212.700	51090.000
20.485	213.800	52150.000
20.649	216.100	51520.000
20.813	218.300	51410.000
20.977	219.400	50860.000
21.141	221.700	50670.000
21.304	222.800	50870.000
21.470	225.100	50160.000
21.634	226.200	50760.000
21.798	228.400	49150.000
21.962	229.500	50040.000
22.126	230.600	49170.000
22.315	232.800	49190.000
22.479	235.000	48060.000
22.644	236.100	47850.000
22.808	238.300	47450.000
22.972	239.400	46640.000
23.135	240.500	47190.000
23.299	242.600	46090.000
23.469	244.800	46180.000
23.634	245.800	45640.000
23.798	248.000	44470.000
23.962	249.000	44870.000
24.136	251.200	43640.000
24.300	252.300	43270.000
24.463	254.400	42550.000
24.627	256.500	41960.000
24.792	257.600	41480.000
24.956	258.600	41370.000
25.121	260.800	40440.000
25.287	261.800	40370.000
25.451	264.000	39860.000
25.615	265.000	38640.000
25.779	267.200	39050.000
25.963	268.200	38230.000
26.128	270.400	37510.000
26.293	272.500	37660.000
26.458	273.500	36540.000
26.623	274.600	36000.000
26.789	276.700	35480.000
26.954	278.900	35330.000
27.117	279.900	35630.000
27.283	282.100	35210.000
27.447	283.200	35180.000
27.624	284.200	34050.000
27.789	286.400	33420.000
27.952	287.500	33330.000
28.117	289.700	33000.000
28.293	291.800	32930.000
28.457	292.900	32980.000
28.621	295.100	32380.000
28.785	296.200	32630.000
28.950	298.400	32350.000
29.115	299.400	32500.000
29.298	301.600	31870.000
29.472	302.700	31720.000
29.636	304.900	31530.000
29.801	306.000	31430.000
29.966	307.100	31910.000
30.157	309.200	32030.000
30.322	311.400	30490.000
30.504	313.500	30930.000
30.673	314.600	31340.000
30.847	316.800	30880.000
31.018	317.900	31040.000
31.182	320.000	30690.000
31.356	322.200	30860.000
31.521	323.200	31010.000
31.707	324.300	30700.000
31.871	326.500	30930.000
32.035	328.600	30160.000
32.212	329.700	30250.000
32.376	331.800	29930.000
32.540	332.900	30190.000
32.703	335.000	30090.000
32.867	336.100	29800.000
33.031	338.300	30400.000
33.194	339.300	29640.000
33.358	341.500	30350.000
33.524	342.500	29610.000
33.689	344.700	30260.000
33.852	345.800	30250.000
34.016	347.900	30580.000
34.180	349.000	30480.000
34.344	350.100	29670.000
34.509	352.200	30040.000
34.673	354.400	30040.000
34.851	355.500	29790.000
35.016	357.700	30360.000
35.180	358.700	30130.000
35.344	360.900	29440.000
35.507	362.000	29780.000
35.671	364.100	29230.000
35.834	365.200	29830.000
35.998	367.400	29430.000
36.161	368.500	29500.000
36.337	370.600	29870.000
36.501	371.700	29980.000
36.664	373.900	29440.000
36.828	375.000	28850.000
36.993	377.100	29350.000
37.166	378.200	29260.000
37.329	380.400	29500.000
37.493	381.500	29610.000
37.657	383.600	29390.000
37.822	384.700	29490.000
37.986	386.900	29090.000
38.150	388.000	29940.000
38.314	390.100	29150.000
38.478	391.200	29150.000
38.642	393.400	28510.000
38.806	394.500	29740.000
38.969	396.700	29740.000
39.156	397.700	30090.000
39.319	399.900	29090.000
39.483	402.000	28880.000
39.659	403.100	29000.000
39.829	404.100	29040.000
39.992	406.300	29110.000
40.157	408.400	28780.000
40.320	409.500	29080.000
40.484	411.700	29120.000
40.648	412.700	29650.000
40.811	413.800	29270.000
40.975	415.900	29840.000
41.139	418.100	28530.000
41.303	419.200	28830.000
41.467	420.200	28770.000
41.631	422.400	29560.000
41.797	424.500	29460.000
41.962	425.600	29570.000
42.125	427.700	30500.000
42.291	428.800	30320.000
42.456	429.800	29570.000
42.621	431.900	30000.000
42.786	434.100	30450.000
42.952	435.100	30420.000
43.116	436.200	30810.000
43.280	438.300	30440.000
43.445	440.400	30190.000
43.610	440.400	30370.000
43.773	442.600	30120.000
43.937	444.700	30120.000
44.100	445.700	30310.000
44.263	447.900	30340.000
44.428	448.900	30160.000
44.592	451.100	29380.000
44.756	452.100	29580.000
44.919	454.300	29560.000
45.085	455.400	29960.000
45.250	457.500	29040.000
45.414	458.600	29440.000
45.578	460.800	29470.000
45.743	461.900	28790.000
45.908	464.000	28790.000
46.071	465.100	29000.000
46.235	467.200	29380.000
46.399	468.300	28800.000
46.582	470.500	28500.000
46.747	472.600	28430.000
46.919	473.700	28280.000
47.083	475.900	28050.000
47.252	477.000	28160.000
47.416	479.100	29180.000
47.580	480.200	28580.000
47.752	482.300	28950.000
47.918	483.400	28540.000
48.092	485.600	28590.000
48.257	486.700	28550.000
48.421	487.800	28010.000
48.584	489.900	28300.000
48.757	492.100	27930.000
48.920	493.100	28250.000
49.083	494.200	27980.000
49.247	496.400	27850.000
49.411	498.500	27480.000
49.575	499.600	28010.000
49.740	500.700	28130.000
49.905	502.800	27700.000
50.069	503.900	27910.000
50.249	506.000	27760.000
50.425	508.200	27520.000
50.592	510.300	27590.000
50.757	511.400	27500.000
50.928	512.500	28010.000
51.092	514.600	28130.000
51.255	515.700	28570.000
51.431	517.800	27560.000
51.597	518.900	27850.000
51.760	521.100	27630.000
51.934	523.200	27830.000
52.099	524.300	28240.000
52.263	526.400	27890.000
52.454	527.500	27260.000
52.619	529.600	27670.000
52.783	530.700	27860.000
52.954	532.800	27150.000
53.138	534.900	27720.000
53.302	536.000	27130.000
53.467	538.200	28310.000
53.632	539.200	27440.000
53.795	541.400	27420.000
53.961	542.400	27620.000
54.126	543.500	27460.000
54.290	545.700	26690.000
54.455	547.800	27260.000
54.619	548.900	26740.000
54.785	551.000	26760.000
54.949	552.100	27940.000
55.135	554.200	26870.000
55.300	555.300	27560.000
55.465	557.400	27000.000
55.643	558.500	27230.000
55.806	560.600	27560.000
55.971	561.700	27860.000
56.138	563.800	26960.000
56.302	564.900	27530.000
56.468	567.000	27470.000
56.634	568.100	27190.000
56.798	570.200	28280.000
56.963	571.300	27700.000
57.137	573.400	26850.000
57.312	575.500	26870.000
57.476	576.600	26730.000
57.640	578.700	27380.000
57.805	579.800	27310.000
57.970	580.900	26640.000
58.136	583.000	27080.000
58.300	585.100	27200.000
58.464	586.200	26690.000
58.629	587.300	26990.000
58.794	589.400	26400.000
58.959	590.500	26700.000
59.125	592.600	27030.000
59.289	594.700	27190.000
59.454	595.800	27190.000
59.619	596.800	26900.000
59.784	598.900	27340.000
59.949	601.100	27040.000
60.113	602.100	26890.000
60.279	603.200	27160.000
60.443	605.300	26540.000
