Tue, Jul 18, 2017	5:09 PM
 Notes: HOAc_6-09_150 s _718_high_point_density
 waiting time: 50.000
 time(ms)	 temp (K)	 MS1=61.297	 MS2=17.903	 MS3=28.178	 MS4=44.784	 MS5=61.297	 MS6=68.073	 MS7=68.640	 MS8=90.000
0.000	95.500	-720.000
0.224	95.500	38380.000
0.388	95.500	39690.000
0.552	95.400	40610.000
0.715	95.400	40990.000
0.887	95.400	41180.000
1.077	95.500	40750.000
1.255	95.500	42410.000
1.445	95.500	41660.000
1.641	95.500	42340.000
1.825	95.500	42540.000
2.003	95.500	42730.000
2.167	95.500	42670.000
2.353	95.500	42920.000
2.541	95.500	42950.000
2.717	95.600	42680.000
2.882	95.600	43050.000
3.045	95.500	43690.000
3.208	95.500	43480.000
3.394	95.500	42430.000
3.558	95.500	43220.000
3.739	95.500	43610.000
3.930	95.600	43660.000
4.113	95.600	43520.000
4.285	95.600	43520.000
4.461	95.600	43250.000
4.631	95.600	43780.000
4.794	95.600	43560.000
4.959	95.600	43430.000
5.149	95.700	43330.000
5.313	95.700	43640.000
5.477	95.700	43890.000
5.642	95.700	43660.000
5.811	95.700	43770.000
5.975	95.700	43590.000
6.139	95.700	43860.000
6.307	95.700	43930.000
6.471	95.700	44160.000
6.661	95.700	43810.000
6.825	95.700	43860.000
6.988	95.700	43980.000
7.161	95.800	43780.000
7.351	95.800	43410.000
7.515	95.700	43710.000
7.690	95.700	44080.000
7.872	95.700	44560.000
8.043	95.800	44180.000
8.208	95.800	43980.000
8.387	95.800	44230.000
8.564	95.900	44110.000
8.746	95.800	43770.000
8.912	95.800	44030.000
9.075	95.800	43200.000
0.000	96.700	36290.000
0.169	96.700	35750.000
0.340	96.700	36900.000
0.522	96.700	37630.000
0.696	96.700	38490.000
0.883	96.700	38550.000
1.054	96.700	39200.000
1.227	96.700	39090.000
1.417	96.700	38980.000
1.595	96.700	39390.000
1.773	96.700	38610.000
1.952	96.700	39470.000
2.124	96.700	40060.000
2.298	96.700	39700.000
2.469	96.800	39710.000
2.642	96.700	39900.000
2.810	96.700	40090.000
2.981	96.700	39810.000
3.145	96.700	39920.000
3.330	96.800	39470.000
3.507	96.800	39840.000
3.679	96.800	40400.000
3.869	96.800	40030.000
4.034	96.700	40140.000
4.208	96.800	39730.000
4.376	96.800	39470.000
4.559	96.800	39300.000
4.725	96.800	39810.000
4.902	96.800	39890.000
5.080	96.800	39780.000
5.259	96.800	39780.000
5.424	96.900	39970.000
5.609	96.900	39600.000
5.773	96.900	39480.000
5.948	96.900	39980.000
6.113	96.900	40110.000
6.277	96.900	39190.000
6.441	96.900	39490.000
6.606	96.900	39260.000
6.770	96.900	39960.000
6.940	96.900	39560.000
7.104	96.900	39590.000
7.268	96.900	39230.000
7.443	96.900	39970.000
7.609	96.900	39310.000
7.773	96.900	39810.000
7.937	96.900	39310.000
8.111	96.900	39290.000
8.276	97.000	39220.000
8.450	97.000	38690.000
8.613	97.000	38640.000
8.791	97.000	39210.000
8.955	97.000	38540.000
9.118	97.100	38970.000
9.294	97.100	38600.000
9.458	97.100	38880.000
9.622	97.100	38610.000
9.798	97.200	38890.000
9.989	97.200	39280.000
10.154	97.200	42850.000
10.319	97.200	70930.000
10.503	97.200	76910.000
10.681	97.300	71100.000
10.853	97.300	54410.000
11.021	97.400	49340.000
11.192	97.500	50490.000
11.373	97.600	50880.000
11.538	97.800	49730.000
11.702	97.800	49390.000
11.867	97.900	48290.000
12.030	98.000	48570.000
12.197	98.200	47150.000
12.361	98.300	48040.000
12.526	98.600	45870.000
12.687	98.700	47550.000
12.867	98.800	46790.000
13.032	99.100	47040.000
13.195	99.400	47480.000
13.359	99.600	47580.000
13.523	100.000	47840.000
13.688	100.200	48490.000
13.851	100.600	48930.000
14.015	100.900	48870.000
14.179	101.400	48400.000
14.343	101.700	48840.000
14.507	102.300	49130.000
14.689	102.600	48690.000
14.856	103.300	48710.000
15.021	103.600	48140.000
15.185	104.400	48480.000
15.358	104.800	47770.000
15.522	105.600	47860.000
15.713	106.400	47050.000
15.878	106.900	47280.000
16.042	107.800	45440.000
16.206	108.200	45590.000
16.371	108.700	45060.000
16.547	109.700	43570.000
16.710	110.200	44230.000
16.875	111.200	43540.000
17.057	112.200	42430.000
17.222	112.700	42870.000
17.386	113.700	41960.000
17.550	114.200	41980.000
17.715	115.200	41130.000
17.878	115.600	41620.000
18.043	116.600	41510.000
18.207	117.100	41670.000
18.374	118.100	40710.000
18.539	118.500	40600.000
18.702	119.400	40540.000
18.885	119.900	40320.000
19.050	120.800	40180.000
19.264	121.700	41120.000
19.435	122.100	39340.000
19.598	122.900	40090.000
19.780	123.700	39910.000
19.961	124.100	39640.000
20.139	124.800	39380.000
20.304	125.200	39700.000
20.468	125.900	39570.000
20.632	126.300	38570.000
20.797	127.000	38980.000
20.983	127.300	39020.000
21.159	128.000	38320.000
21.322	128.600	38930.000
21.512	128.900	39090.000
21.677	129.500	38510.000
21.841	129.900	39050.000
22.007	130.400	39360.000
22.171	130.700	38970.000
22.335	131.300	38940.000
22.515	131.800	38080.000
22.690	132.100	39050.000
22.861	132.700	38640.000
23.047	132.900	38700.000
23.231	133.400	38250.000
23.396	133.700	38210.000
23.566	134.200	38260.000
23.755	134.800	38760.000
23.933	135.000	38840.000
24.109	135.500	38510.000
24.295	136.100	38300.000
24.474	136.300	38120.000
24.652	136.800	38300.000
24.837	137.300	38960.000
25.001	137.600	38850.000
25.167	138.100	38170.000
25.332	138.300	37990.000
25.496	138.600	39150.000
25.662	139.100	38310.000
25.826	139.700	38720.000
25.998	139.900	39580.000
26.162	140.200	39400.000
26.327	140.700	39240.000
26.494	141.200	40280.000
26.657	141.500	39840.000
26.821	142.100	40080.000
26.985	142.400	41200.000
27.150	143.000	41970.000
27.315	143.200	42460.000
27.478	143.800	43210.000
27.668	144.100	43980.000
27.832	144.800	45400.000
27.998	145.100	46350.000
28.162	145.700	47810.000
28.326	146.000	50680.000
28.513	146.600	51470.000
28.676	147.200	53880.000
28.841	147.600	57910.000
29.006	147.900	60080.000
29.181	148.500	63570.000
29.345	149.200	67800.000
29.510	149.500	71340.000
29.692	150.200	76070.000
29.856	150.600	82680.000
30.046	151.200	88670.000
30.210	151.900	94630.000
30.376	152.300	102360.000
30.544	152.600	110950.000
30.710	153.300	117600.000
30.873	153.700	126520.000
31.037	154.400	133830.000
31.202	154.700	142170.000
31.365	155.400	151450.000
31.531	155.800	161170.000
31.695	156.500	171270.000
31.859	157.200	182330.000
32.023	157.500	191240.000
32.187	157.900	204300.000
32.353	158.600	215740.000
32.518	158.900	226560.000
32.698	159.700	239700.000
32.863	160.000	254030.000
33.027	160.700	268280.000
33.191	161.400	282290.000
33.354	161.800	301320.000
33.518	161.800	317890.000
33.682	162.800	340980.000
33.862	163.500	369630.000
34.048	163.800	395670.000
34.214	164.500	419990.000
34.377	164.900	442230.000
34.571	165.600	467470.000
34.736	166.200	478290.000
34.918	166.600	481520.000
35.082	167.200	472460.000
35.247	167.500	447750.000
35.411	168.200	418520.000
35.575	168.600	390140.000
35.741	169.200	377650.000
35.905	169.500	372200.000
36.070	170.200	370760.000
36.234	170.500	378180.000
36.405	171.100	391170.000
36.585	171.500	405820.000
36.759	172.100	429340.000
36.925	172.800	451930.000
37.090	173.100	481420.000
37.254	173.700	508780.000
37.418	174.100	538240.000
37.584	174.400	575180.000
37.750	175.000	615790.000
37.913	175.300	655440.000
38.079	175.900	693780.000
38.244	176.300	734540.000
38.411	176.900	770870.000
38.575	177.200	812850.000
38.740	177.800	848420.000
38.904	178.100	874180.000
39.070	178.700	896000.000
39.235	179.100	908360.000
39.399	179.700	910000.000
39.565	180.300	898640.000
39.741	180.600	877530.000
39.919	181.200	844250.000
40.082	181.600	809010.000
40.274	182.200	758470.000
40.437	182.500	718330.000
40.602	183.200	671200.000
40.766	183.500	627250.000
40.939	184.100	586830.000
41.104	184.700	548370.000
41.281	185.000	506180.000
41.482	185.700	472500.000
41.647	186.000	444320.000
41.839	186.600	407910.000
42.005	187.300	386220.000
42.171	187.600	362870.000
42.356	188.300	335040.000
42.520	188.600	318780.000
42.685	188.900	301870.000
42.850	189.500	283950.000
43.016	190.200	267770.000
43.182	190.500	252580.000
43.348	191.200	240670.000
43.513	191.500	229010.000
43.677	192.100	221270.000
43.845	192.400	211990.000
44.009	193.100	206810.000
44.174	193.400	200180.000
44.337	194.100	195550.000
44.517	194.700	189880.000
44.681	195.100	188030.000
44.846	195.400	184220.000
45.012	196.100	182930.000
45.177	196.700	177380.000
45.354	197.000	174330.000
45.518	197.700	172480.000
45.686	198.000	171330.000
45.854	198.700	167940.000
46.019	199.000	168490.000
46.183	199.700	164870.000
46.348	200.000	162650.000
46.528	200.700	160940.000
46.693	201.000	157000.000
46.858	201.700	156830.000
47.023	202.000	152640.000
47.193	202.300	152000.000
47.358	203.000	150970.000
47.522	203.700	148750.000
47.687	204.000	146050.000
47.852	204.600	144580.000
48.031	205.000	141520.000
48.196	205.600	139620.000
48.360	206.300	138100.000
48.525	206.600	136150.000
48.702	206.900	134160.000
48.867	207.600	134570.000
49.032	208.200	131630.000
49.199	208.600	132110.000
49.364	208.900	129290.000
49.529	209.600	127340.000
49.695	209.900	127410.000
49.884	210.500	125220.000
50.049	211.200	124320.000
50.214	211.500	123200.000
50.391	212.200	121090.000
50.556	212.500	120720.000
50.721	213.100	119170.000
50.886	213.500	118540.000
51.051	214.100	116940.000
51.228	214.800	116120.000
51.406	215.100	115450.000
51.599	215.800	113960.000
51.764	216.100	114630.000
51.930	216.800	112500.000
52.095	217.100	111240.000
52.259	217.700	109920.000
52.424	218.100	109890.000
52.590	218.700	109670.000
52.755	219.100	107960.000
52.920	219.700	107380.000
53.084	220.000	105560.000
53.250	220.700	105610.000
53.414	221.000	105010.000
53.578	221.600	109620.000
53.763	222.000	103830.000
53.929	222.600	102860.000
54.095	223.300	102240.000
54.260	223.600	101390.000
54.425	224.300	100650.000
54.591	224.600	99960.000
54.756	225.200	99600.000
54.921	225.600	99750.000
55.089	226.200	96880.000
55.253	226.500	97840.000
55.419	227.200	98020.000
55.585	227.500	96510.000
55.767	228.100	95950.000
55.933	228.500	96050.000
56.120	229.100	95090.000
56.285	229.400	95750.000
56.451	230.100	93570.000
56.617	230.700	93910.000
56.782	231.100	93580.000
56.946	231.700	92360.000
57.112	232.100	92110.000
57.276	232.400	90560.000
57.442	232.700	90390.000
57.608	233.700	89420.000
57.773	234.000	90780.000
57.937	234.300	88950.000
58.103	235.000	89560.000
58.267	235.600	88680.000
58.431	235.900	88120.000
58.596	236.300	88190.000
58.761	236.900	86920.000
58.924	237.600	86680.000
59.090	237.900	86760.000
59.255	238.600	86120.000
59.437	238.900	85360.000
59.615	239.600	85030.000
59.785	239.900	84070.000
59.948	240.500	84280.000
60.114	240.800	83310.000
60.279	241.500	81450.000
60.459	241.800	82750.000
60.623	242.500	79860.000
60.789	242.800	80710.000
60.954	243.400	80660.000
61.117	243.800	80160.000
61.281	244.100	80630.000
61.446	244.700	79320.000
61.632	245.400	78460.000
61.796	246.000	78550.000
61.960	246.400	76990.000
62.124	247.000	78140.000
62.287	247.300	77200.000
62.452	247.600	76810.000
62.641	248.300	76170.000
62.805	249.000	74680.000
62.970	249.300	75540.000
63.157	250.000	74870.000
63.344	250.600	73620.000
63.529	250.900	74110.000
63.696	251.500	73550.000
63.859	251.900	72820.000
64.024	252.500	73970.000
64.202	252.900	72420.000
64.366	253.500	72410.000
64.531	253.900	71690.000
64.705	254.500	71430.000
64.883	255.200	70590.000
65.048	255.500	70700.000
65.232	256.100	69300.000
65.396	256.500	68750.000
65.560	257.100	68910.000
65.725	257.400	68340.000
65.888	258.100	68950.000
66.054	258.100	67550.000
66.219	258.700	67710.000
66.384	259.400	67780.000
66.548	260.100	66890.000
66.712	260.400	65920.000
66.877	261.100	66980.000
67.041	261.400	65750.000
67.205	261.700	66710.000
67.369	262.400	66020.000
67.533	263.000	65420.000
67.697	263.400	65730.000
67.861	264.000	65510.000
68.025	264.400	65550.000
68.191	264.700	64310.000
68.356	265.300	65080.000
68.519	266.000	64890.000
68.696	266.300	64570.000
68.877	266.900	64920.000
69.042	267.300	64370.000
69.207	267.900	63600.000
69.370	268.200	63100.000
69.535	268.900	63660.000
69.718	269.200	63000.000
69.882	269.900	63020.000
70.046	270.500	61830.000
70.210	270.800	61870.000
70.375	271.500	62160.000
70.564	271.800	61180.000
70.729	272.500	61140.000
70.893	272.800	61600.000
71.057	273.500	61380.000
71.222	273.800	60320.000
71.396	274.400	60620.000
71.562	274.800	60420.000
71.726	275.400	60080.000
71.891	275.700	60230.000
72.055	276.400	59800.000
72.220	276.400	59570.000
72.384	277.400	58830.000
72.592	277.700	59120.000
72.755	278.300	57300.000
72.919	279.000	58260.000
73.083	279.300	58570.000
73.248	280.000	59540.000
73.413	280.300	58160.000
73.579	280.900	59060.000
73.743	281.200	58420.000
73.908	281.900	58010.000
74.093	282.200	57350.000
74.257	282.900	57260.000
74.421	283.200	57050.000
74.595	283.900	56850.000
74.761	284.600	57090.000
74.925	284.900	56180.000
75.091	285.200	56630.000
75.255	285.900	56210.000
75.421	286.500	55630.000
75.601	286.900	55580.000
75.766	287.500	57130.000
75.931	287.900	55030.000
76.096	288.200	54410.000
76.261	288.800	55080.000
76.425	289.500	55950.000
76.590	289.800	55360.000
76.755	290.500	54680.000
76.919	290.800	55230.000
77.083	291.500	54930.000
77.248	291.800	54270.000
77.413	292.100	53680.000
77.576	292.800	53780.000
77.742	293.100	54110.000
77.907	293.800	52740.000
78.070	294.400	53720.000
78.252	294.800	52780.000
78.418	294.800	53270.000
78.583	295.700	52170.000
78.748	296.400	52760.000
78.913	296.700	53340.000
79.078	297.000	52410.000
79.242	297.700	52780.000
79.409	298.000	53250.000
79.574	298.700	52350.000
79.739	299.300	52300.000
79.903	299.700	52110.000
80.069	300.300	51890.000
80.233	300.600	52870.000
80.425	301.300	52430.000
80.606	301.900	50370.000
80.772	302.300	50840.000
80.936	302.600	51490.000
81.101	303.300	50800.000
81.277	303.600	50300.000
81.442	304.200	50530.000
81.606	304.900	50800.000
81.771	305.200	50580.000
81.938	305.900	50430.000
82.106	306.200	50390.000
82.271	306.500	50870.000
82.437	307.200	50630.000
82.617	307.800	50960.000
82.781	308.200	50460.000
82.946	308.800	50280.000
83.111	309.100	49530.000
83.275	309.800	49650.000
83.439	310.100	48860.000
83.605	310.800	49790.000
83.770	311.100	49110.000
83.935	311.700	49320.000
84.101	312.000	48900.000
84.266	312.700	50110.000
84.431	313.000	48690.000
84.622	313.400	48980.000
84.800	314.400	48320.000
84.965	314.700	48710.000
85.132	315.300	47430.000
85.297	315.600	48430.000
85.462	316.000	48520.000
85.626	316.600	48450.000
85.792	317.300	47890.000
85.957	317.600	47580.000
86.122	318.200	48270.000
86.287	318.600	48240.000
86.452	319.200	47720.000
86.618	319.500	46780.000
86.783	320.200	47410.000
86.949	320.500	46810.000
87.114	320.900	47210.000
87.278	321.500	47980.000
87.443	322.200	48120.000
87.608	322.500	47870.000
87.773	323.100	47300.000
87.938	323.400	48140.000
88.104	324.100	47120.000
88.271	324.400	48270.000
88.446	324.700	47610.000
88.612	325.400	46740.000
88.776	326.100	46910.000
88.942	326.400	46480.000
89.107	327.000	46630.000
89.272	327.300	46300.000
89.437	328.000	46010.000
89.601	328.300	46320.000
89.767	328.700	45780.000
89.932	329.300	45840.000
90.098	330.000	45950.000
90.279	330.600	46500.000
90.459	330.900	47810.000
90.652	331.600	46690.000
90.817	331.900	46770.000
90.982	332.600	45490.000
91.146	332.900	46270.000
91.311	333.600	44550.000
91.476	333.900	46440.000
91.641	334.500	45250.000
91.806	334.900	45170.000
91.971	335.500	44540.000
92.136	335.900	45820.000
92.300	336.500	45340.000
92.464	336.900	45410.000
92.629	337.500	45780.000
92.810	337.800	45150.000
92.974	338.500	45330.000
93.140	338.800	46060.000
93.306	339.400	44110.000
93.496	340.100	45020.000
93.662	340.400	44890.000
93.828	341.100	44590.000
93.993	341.400	44810.000
94.159	342.100	44380.000
94.324	342.400	44250.000
94.490	343.100	44170.000
94.654	343.400	43690.000
94.820	344.100	44070.000
94.985	344.400	44270.000
95.153	345.000	44470.000
95.319	345.400	44760.000
95.484	346.000	44950.000
95.649	346.300	43840.000
95.814	347.000	44530.000
95.979	347.300	43940.000
96.145	347.700	44070.000
96.310	348.300	43300.000
96.474	349.000	43300.000
96.640	349.300	43160.000
96.806	349.600	42640.000
96.972	350.300	43000.000
97.136	350.900	43080.000
97.302	351.200	43050.000
97.467	351.900	42590.000
97.631	352.200	42370.000
97.796	352.900	42250.000
97.961	353.200	43210.000
98.126	353.800	43130.000
98.291	354.200	43620.000
98.456	354.800	43630.000
98.621	355.100	42680.000
98.785	355.800	43700.000
98.950	356.100	43050.000
99.117	356.800	42440.000
99.282	357.100	43070.000
99.446	357.800	42500.000
99.610	358.100	42540.000
99.785	358.700	42750.000
99.950	359.100	42380.000
100.115	359.700	41850.000
100.281	360.000	42260.000
100.446	360.700	41820.000
100.611	361.300	41450.000
100.776	361.700	41330.000
100.940	362.000	40250.000
101.107	362.700	41590.000
101.272	363.000	42380.000
101.437	363.600	41680.000
101.601	363.900	42520.000
101.766	364.600	41820.000
101.930	364.900	40990.000
102.094	365.600	41360.000
102.274	365.900	41080.000
102.440	366.600	40730.000
102.604	366.900	41990.000
102.768	367.500	41620.000
102.932	368.200	42030.000
103.097	368.500	41200.000
103.260	369.200	40940.000
103.427	369.500	41690.000
103.591	369.800	41050.000
103.756	370.500	40330.000
103.920	371.100	40100.000
104.086	371.400	40420.000
104.254	371.800	39910.000
104.419	372.400	40720.000
104.583	372.700	39800.000
104.747	373.100	40860.000
104.911	374.100	41820.000
105.078	374.400	41750.000
105.243	374.700	41050.000
105.409	375.400	40110.000
105.573	376.000	40560.000
105.738	376.300	40080.000
105.903	376.700	40290.000
106.068	377.300	40200.000
106.234	378.000	39370.000
106.398	378.300	40790.000
106.563	378.600	39490.000
106.728	379.300	40710.000
106.893	379.600	40760.000
107.059	380.300	39310.000
107.223	380.600	39110.000
107.387	381.200	38940.000
107.552	381.900	38810.000
107.719	382.200	40350.000
107.883	382.900	39460.000
108.049	383.200	39610.000
108.213	383.500	39760.000
108.377	384.200	39230.000
108.542	384.500	39880.000
108.707	385.200	39590.000
108.888	385.800	38330.000
109.053	386.100	40300.000
109.217	386.500	39830.000
109.382	387.100	39730.000
109.547	387.400	39650.000
109.711	388.100	39810.000
109.876	388.700	39380.000
110.041	389.100	39240.000
110.205	389.700	38510.000
110.383	390.000	39650.000
110.547	390.700	38790.000
110.711	391.000	37880.000
110.875	391.400	38270.000
111.039	392.000	38250.000
111.203	392.700	37690.000
111.367	393.000	36770.000
111.533	393.600	37700.000
111.698	394.000	39640.000
111.862	394.600	39790.000
112.028	394.600	39510.000
112.193	395.600	38990.000
112.367	395.900	38660.000
112.532	396.600	38290.000
112.696	396.900	39120.000
112.860	397.500	38330.000
113.024	397.900	38770.000
113.190	398.500	37980.000
113.354	398.500	37890.000
113.520	399.500	37580.000
113.708	399.800	37980.000
113.873	400.500	37550.000
114.038	400.800	37860.000
114.203	401.400	38570.000
114.366	402.100	38530.000
114.531	402.400	38280.000
114.697	402.700	38040.000
114.862	403.400	37930.000
115.028	404.000	38640.000
115.192	404.300	37110.000
115.358	404.700	37440.000
115.523	405.300	37220.000
115.688	405.700	36270.000
115.852	406.300	35600.000
116.018	407.000	37120.000
116.197	407.300	38050.000
116.362	407.900	37640.000
116.528	408.300	37560.000
116.713	408.900	37340.000
116.879	409.300	37070.000
117.043	409.900	37330.000
117.209	410.200	36620.000
117.373	410.500	37700.000
117.539	411.200	37080.000
117.703	411.900	37060.000
117.867	412.200	36560.000
118.032	412.800	36190.000
118.199	413.100	35790.000
118.364	413.800	34050.000
118.529	414.100	38950.000
118.695	414.700	38060.000
118.859	415.100	38770.000
119.025	415.700	38180.000
119.190	416.100	37180.000
119.354	416.700	37870.000
119.522	417.000	37870.000
119.687	417.700	37450.000
119.851	418.000	37820.000
120.016	418.700	38020.000
120.181	419.000	37930.000
120.347	419.700	38370.000
120.511	420.000	38080.000
120.676	420.600	37950.000
120.841	421.000	38060.000
121.006	421.600	37700.000
121.170	421.900	39380.000
121.335	422.600	39100.000
121.501	422.600	38390.000
121.665	423.500	38580.000
121.830	423.800	38190.000
121.996	424.500	38310.000
122.161	424.800	37810.000
122.326	425.500	37640.000
122.491	425.800	38130.000
122.656	426.500	38910.000
122.840	426.800	39110.000
123.006	427.400	38580.000
123.171	428.100	37480.000
123.335	428.400	37600.000
123.503	428.700	38230.000
123.668	429.400	37690.000
123.845	430.000	37150.000
124.010	430.300	36280.000
124.175	430.600	35870.000
124.356	431.300	36890.000
124.539	431.900	35430.000
124.724	432.600	37090.000
124.913	432.900	37660.000
125.088	433.500	36300.000
125.272	434.200	36640.000
125.438	434.500	36700.000
125.625	434.800	36260.000
125.814	435.800	36210.000
125.985	436.100	35370.000
126.162	436.800	35840.000
126.349	437.100	35430.000
126.534	437.700	35510.000
126.722	438.400	35440.000
126.899	438.700	34750.000
127.091	439.300	34000.000
127.264	440.000	36690.000
127.445	440.300	36350.000
127.622	440.900	35820.000
127.811	441.300	34690.000
127.995	441.900	34740.000
128.183	442.600	34210.000
128.414	443.200	34860.000
128.611	443.500	33830.000
128.795	444.500	34050.000
128.984	444.800	32650.000
129.151	445.500	33900.000
129.333	446.100	33900.000
129.520	446.500	34670.000
129.692	446.800	34900.000
129.874	447.800	35260.000
130.040	448.100	35100.000
130.223	448.800	35080.000
130.394	449.100	34690.000
130.560	449.700	34510.000
130.726	450.100	34160.000
130.906	450.700	34250.000
131.078	451.000	33880.000
131.268	451.700	32900.000
131.434	452.300	32040.000
131.603	452.700	30920.000
131.768	453.000	33280.000
131.933	453.300	33390.000
132.098	454.300	32830.000
132.275	454.600	33710.000
132.440	455.200	32640.000
132.604	455.600	32250.000
132.780	456.200	27470.000
132.947	456.600	28800.000
133.112	457.200	33980.000
133.295	457.900	33940.000
133.459	458.200	34470.000
133.624	458.900	34320.000
133.788	459.200	33950.000
133.953	459.500	33320.000
134.118	460.200	33430.000
134.283	460.800	33810.000
134.450	461.200	33670.000
134.616	461.800	33930.000
134.781	462.100	32660.000
134.947	462.800	33640.000
135.113	463.100	33390.000
135.278	463.800	33010.000
135.444	464.100	33220.000
135.609	464.700	33140.000
135.774	465.000	33720.000
135.939	465.700	32720.000
136.103	466.000	32080.000
136.268	466.700	33040.000
136.439	467.000	32390.000
136.604	467.600	31260.000
136.771	468.000	33390.000
136.937	468.600	33560.000
137.102	469.000	32830.000
137.268	469.300	32900.000
137.434	469.900	33330.000
137.599	470.600	32740.000
137.765	470.900	33130.000
137.931	471.600	33180.000
138.096	471.900	32990.000
138.260	472.500	32210.000
138.425	472.800	32060.000
138.590	473.500	31860.000
138.754	473.800	32170.000
138.919	474.500	32370.000
139.084	474.800	31870.000
139.249	475.400	30920.000
139.414	475.700	31750.000
139.578	476.400	31550.000
139.743	476.700	31980.000
139.908	477.400	31570.000
140.074	477.700	31390.000
140.239	478.300	31430.000
140.404	478.700	30040.000
140.568	479.000	31400.000
140.733	479.700	33090.000
140.899	480.300	33510.000
141.063	480.600	33670.000
141.228	480.900	33090.000
141.392	481.600	33290.000
141.571	481.900	32380.000
141.745	482.600	32600.000
141.928	483.200	32520.000
142.108	483.900	32140.000
142.274	484.200	32130.000
142.445	484.800	32330.000
142.626	485.200	31860.000
142.800	485.800	31680.000
142.976	486.500	32140.000
143.141	486.800	31470.000
143.310	487.400	32060.000
143.476	487.800	31840.000
143.649	488.400	31770.000
143.826	488.800	31440.000
143.999	489.400	32580.000
144.165	489.700	31490.000
144.330	490.000	31630.000
144.499	490.700	30990.000
144.678	491.300	31770.000
144.853	492.000	31500.000
145.021	492.300	30640.000
145.186	493.000	31070.000
145.351	493.300	31050.000
145.526	493.900	30920.000
145.703	494.200	30040.000
145.896	494.900	30660.000
146.078	495.500	30140.000
146.247	495.900	29920.000
146.433	496.500	31420.000
146.619	496.800	30940.000
146.796	497.500	31070.000
146.986	498.200	31420.000
147.164	498.800	32440.000
147.368	499.100	31140.000
147.552	499.800	31620.000
147.725	500.400	32100.000
147.900	500.700	30910.000
148.065	501.400	31240.000
148.231	501.700	30630.000
148.398	502.400	31410.000
148.562	502.700	30760.000
148.726	503.300	30530.000
148.891	503.600	31410.000
149.056	504.300	30890.000
149.220	504.600	30120.000
149.385	505.300	30340.000
149.551	505.600	30680.000
149.715	506.300	30160.000
149.880	506.600	30170.000
150.044	507.200	30950.000
150.210	507.500	30950.000
150.374	508.200	30500.000
150.539	508.500	30110.000
150.704	509.100	31260.000
150.869	509.500	31360.000
151.035	510.100	30590.000
151.199	510.500	31100.000
151.365	511.100	31210.000
151.529	511.400	31010.000
151.694	512.100	30490.000
151.859	512.400	29650.000
152.024	513.100	30910.000
152.189	513.400	30540.000
152.354	514.000	30780.000
152.519	514.400	30150.000
152.683	515.000	30260.000
152.848	515.300	30580.000
153.012	516.000	30540.000
153.177	516.300	29170.000
153.344	516.900	29600.000
153.510	517.300	29560.000
153.691	517.900	27920.000
153.855	518.500	29980.000
154.019	518.900	31570.000
154.185	519.200	31290.000
154.351	519.500	30420.000
154.515	520.500	30680.000
154.681	520.800	30910.000
154.846	521.100	30990.000
155.011	521.800	30280.000
155.177	522.100	29700.000
155.341	522.800	29590.000
155.505	523.100	29070.000
155.671	523.700	28740.000
155.837	524.100	29410.000
156.001	524.700	27530.000
156.165	525.000	28960.000
156.331	525.700	28460.000
156.496	526.000	28330.000
156.660	526.600	-60.000
156.826	526.600	-100.000
156.991	527.600	-120.000
157.156	528.000	-50.000
157.322	528.600	-40.000
157.487	528.900	-110.000
157.652	529.600	-60.000
157.818	530.200	-90.000
157.983	530.500	-40.000
158.149	530.900	-80.000
158.315	531.500	-50.000
158.481	532.200	-130.000
158.646	532.500	-70.000
158.812	533.100	-70.000
158.977	533.400	-130.000
159.142	533.800	-80.000
159.307	534.400	-80.000
159.478	535.100	-130.000
159.643	535.400	-100.000
159.808	535.700	-140.000
159.973	536.300	-80.000
160.137	537.000	-70.000
160.302	537.300	-80.000
160.467	537.900	-30.000
160.631	538.300	-130.000
160.796	538.600	-100.000
160.961	539.200	-130.000
161.125	539.600	-80.000
161.290	540.200	-100.000
161.476	540.800	-90.000
161.641	541.200	-100.000
161.805	541.800	-90.000
161.970	542.200	-40.000
162.135	542.500	-80.000
162.301	543.100	-140.000
162.474	543.800	-120.000
162.640	544.100	-130.000
162.804	544.800	-110.000
162.969	545.100	-50.000
163.137	545.700	-100.000
163.303	546.000	-120.000
163.468	546.700	-60.000
163.632	547.000	-100.000
163.797	547.600	-140.000
163.962	548.000	-70.000
164.127	548.600	-110.000
164.292	548.900	-110.000
164.458	549.600	-70.000
164.623	549.900	-70.000
164.789	550.500	-80.000
164.954	550.900	-50.000
165.120	551.500	-90.000
165.286	551.800	-70.000
165.452	552.500	-90.000
165.617	552.800	-130.000
165.782	553.500	-80.000
165.947	553.800	-100.000
166.112	554.400	-160.000
166.276	554.800	-50.000
166.440	555.400	-110.000
166.606	555.700	-90.000
166.771	556.400	-100.000
166.936	556.700	-80.000
167.100	557.300	-90.000
167.267	557.600	-70.000
167.433	558.300	-80.000
167.598	558.600	-130.000
167.763	559.300	-70.000
167.953	559.900	-80.000
168.118	560.300	-60.000
168.284	560.900	-80.000
168.449	561.200	-80.000
168.614	561.800	-100.000
168.779	562.200	-130.000
168.944	562.800	-80.000
169.109	563.100	-100.000
169.274	563.800	-70.000
169.439	564.100	-100.000
169.604	564.800	-80.000
169.769	565.100	-90.000
169.934	565.700	-160.000
170.100	566.100	-120.000
170.265	566.700	-80.000
170.428	567.000	-140.000
170.593	567.600	-120.000
170.758	568.000	-40.000
170.923	568.600	-110.000
171.088	568.900	-80.000
171.253	569.600	-60.000
171.419	569.900	-90.000
171.585	570.600	-90.000
171.751	570.900	-90.000
171.916	571.500	-90.000
172.081	571.900	-70.000
172.247	572.500	-90.000
172.413	572.800	-100.000
172.578	573.200	-40.000
172.743	573.800	-100.000
172.932	574.400	-60.000
173.097	574.800	-80.000
173.262	575.400	-90.000
173.428	575.700	-90.000
173.593	576.400	-100.000
173.759	576.700	-30.000
173.924	577.300	-40.000
174.088	577.700	-90.000
174.254	578.300	-110.000
174.419	578.600	-90.000
174.584	579.300	-110.000
174.749	579.600	-80.000
174.915	580.200	-50.000
175.081	580.500	-80.000
175.246	581.200	-120.000
175.411	581.500	-80.000
175.576	582.200	-90.000
175.741	582.500	-20.000
175.905	583.100	-70.000
176.070	583.400	-60.000
176.234	584.100	-140.000
176.399	584.400	-90.000
176.565	585.100	-70.000
176.728	585.400	-160.000
176.893	586.000	-60.000
177.059	586.300	-50.000
177.223	586.900	-20.000
177.387	587.300	-100.000
177.566	587.900	-130.000
177.732	588.600	-90.000
177.898	588.900	-100.000
178.063	589.200	-60.000
178.228	589.900	-70.000
178.393	590.500	-50.000
178.558	590.800	-80.000
178.724	591.500	-80.000
178.891	591.800	-90.000
179.055	592.200	-60.000
179.220	592.800	-100.000
179.387	593.100	-100.000
179.552	593.800	-60.000
179.718	594.400	-90.000
179.884	594.700	-60.000
180.048	595.000	-30.000
180.212	595.700	-50.000
180.381	596.300	-70.000
180.800	597.300	-90.000
180.966	597.900	-50.000
181.131	598.300	-100.000
181.316	598.900	-90.000
181.482	599.500	-60.000
181.647	599.800	-90.000
181.811	600.200	-40.000
181.975	600.800	-110.000
182.141	601.400	-80.000
