Mon, Oct 16, 2017	12:33 PM
 Notes: GUA_top chamber_5E-08_30 sec__101617
 waiting time: 50.000
 time(s)	 temp (K)	 MS1=1.971	 MS2=14.708	 MS3=27.883	 MS4=125.586	 MS5=109.505	 MS6=125.586	 MS7=109.505	 MS8=125.586
0.000	99.300	3710.223	627.861	10286.247	49.878
1.129	99.300	3749.779	622.108	10340.046	49.128
2.333	99.300	3700.092	636.178	10325.692	49.127
3.190	99.300	3750.005	610.980	10379.733	48.346
4.049	99.300	3748.765	631.078	10368.359	48.485
4.930	99.300	3727.836	651.509	10462.940	49.225
5.796	99.300	3764.996	636.869	10491.482	51.218
6.681	99.300	3808.953	641.541	10500.296	49.970
7.563	99.400	3784.115	644.244	10528.062	47.278
8.464	99.500	3780.425	653.483	10612.912	48.932
9.330	99.800	3770.790	668.049	11001.195	47.453
10.216	100.400	3855.204	696.485	11635.993	49.235
11.096	101.600	3856.712	761.482	12588.946	49.987
11.966	103.400	3887.084	885.121	13601.010	50.078
12.829	105.500	3909.826	1009.649	14737.942	50.445
13.694	108.500	4003.457	1120.754	15481.076	51.419
14.597	112.000	4007.048	1193.196	15870.340	49.318
15.484	116.200	3933.409	1258.492	15910.536	48.509
16.352	119.500	3907.167	1293.312	15947.051	48.423
17.218	123.200	3972.981	1320.663	16159.164	47.703
18.081	126.800	4001.721	1330.282	16300.883	48.782
18.953	130.200	3928.610	1392.264	16309.276	50.970
19.832	133.700	3963.280	1469.223	16426.859	49.867
20.698	137.000	4017.571	1456.330	16695.827	50.681
21.570	140.300	4014.456	1418.662	16531.680	52.280
22.437	143.600	4005.802	1458.783	16189.617	52.615
23.302	146.900	3948.384	1436.907	15970.359	53.301
24.167	149.600	4014.746	1424.260	15716.827	55.540
25.043	152.700	3986.065	1342.619	15286.348	59.451
25.910	155.800	3906.062	1417.898	15191.334	69.068
26.796	158.800	3903.415	1528.434	15207.955	85.805
27.686	161.800	3995.182	1756.366	15328.964	116.193
28.566	164.700	4000.106	2158.168	15532.034	169.290
29.428	167.600	3966.769	2533.231	15693.609	248.065
30.309	170.400	3993.362	2796.133	16151.229	390.875
31.177	173.200	4086.765	2991.517	16984.461	612.293
32.054	176.100	4127.847	3189.957	17825.143	1035.706
32.921	178.800	4106.939	3487.301	18787.012	1710.360
33.805	181.600	4187.698	3996.592	20274.782	2996.047
34.685	184.300	4372.558	4826.657	22169.991	5006.670
35.551	187.100	4464.092	5896.178	23352.761	6905.855
36.440	189.800	4498.813	6741.234	23653.507	7175.672
37.305	192.500	4589.156	7939.695	25402.209	9748.086
38.172	195.200	4782.600	10346.503	29249.610	10439.807
39.062	197.900	4966.057	10439.807	37089.493	10439.807
39.929	200.500	5293.123	10439.807	52374.391	10439.807
40.795	203.200	5911.719	10439.807	77445.556	10439.807
41.662	205.900	6844.820	10439.807	104398.073	10439.807
42.527	208.200	8543.277	10439.807	104398.073	10439.807
43.392	210.900	10439.570	10439.807	104398.073	10439.807
44.258	213.600	10439.807	10439.807	104398.073	10439.807
45.139	216.200	9750.201	10439.807	104398.073	10439.807
46.028	218.900	8036.611	10439.807	83893.969	10439.807
46.933	221.500	7232.480	10439.807	69248.810	10439.807
47.810	224.200	6880.021	10439.807	60605.831	10439.807
48.682	226.800	6733.383	10439.807	54877.243	10439.807
49.546	229.500	6535.220	10439.807	49988.548	10439.807
50.413	232.100	6285.383	10439.555	46255.380	10439.807
51.281	234.800	6189.357	10401.306	43951.408	10439.807
52.167	237.400	6197.306	9943.014	41225.044	10439.807
53.031	240.000	6164.877	9265.156	38568.539	10439.807
53.894	242.700	5954.322	8772.576	36826.294	10439.807
54.762	245.300	5925.429	8276.477	35689.961	10439.807
55.629	248.000	5988.300	7813.125	34389.786	10439.807
56.494	250.300	5952.685	7557.647	32603.499	10416.426
57.359	252.900	5857.195	7223.338	31573.630	10093.273
58.225	255.500	5914.904	6931.361	30992.338	9602.719
59.092	258.200	5938.103	6678.468	30103.691	8815.636
59.960	260.800	5817.667	6436.971	28950.074	8196.745
60.825	263.500	5832.475	6227.890	28115.238	7727.671
61.693	266.100	5873.015	6017.159	27868.266	7300.741
62.560	268.700	5895.542	5783.289	27132.608	6865.467
63.451	271.400	5852.515	5648.049	26381.667	6509.640
64.339	274.000	5841.878	5500.904	25776.826	6203.453
65.206	276.700	5994.017	5331.085	25684.181	5970.536
66.072	279.000	6024.487	5221.024	25187.918	5576.839
66.940	281.600	5985.858	5124.695	24412.281	5300.688
67.819	284.300	6053.303	4989.901	24083.808	5133.966
68.686	286.900	6261.011	4907.203	23898.620	4950.575
69.572	289.600	6301.889	4869.877	23660.831	4624.104
70.438	292.200	6292.850	4808.842	22950.519	4417.320
71.320	294.900	6369.046	4718.108	22708.730	4304.406
72.186	297.500	6565.460	4601.736	22604.380	4133.228
73.052	300.100	6615.531	4534.396	22148.658	3936.564
73.918	302.800	6662.928	4562.517	21650.713	3806.128
74.784	305.400	6814.382	4493.313	21719.732	3720.631
75.651	308.000	7043.572	4454.290	21561.087	3578.573
76.517	310.300	7208.904	4458.776	21147.025	3414.241
77.428	313.300	7273.678	4413.192	20817.533	3312.127
78.318	315.900	7564.269	4471.259	20830.397	3234.468
79.172	318.600	7907.501	4458.977	20862.620	3121.063
80.038	320.900	8106.959	4460.778	20454.926	2965.350
80.930	323.900	8228.081	4421.024	20192.403	2917.495
81.798	326.200	8396.640	4405.560	20123.206	2848.544
82.684	329.100	8679.747	4347.728	20111.042	2757.050
83.574	331.700	8790.375	4397.572	19947.621	2630.164
84.467	334.400	8677.843	4366.695	19582.365	2516.815
85.334	337.000	8608.539	4336.160	19435.374	2483.945
86.201	339.300	8580.799	4219.244	19508.685	2408.715
87.067	342.000	8418.395	4141.997	19318.135	2299.926
87.929	344.600	8116.957	4110.755	18982.364	2239.958
88.795	347.200	7988.238	4012.143	19075.582	2213.936
89.679	349.900	8026.351	3846.633	19025.820	2123.316
90.537	352.500	7985.941	3700.221	18548.815	2042.161
91.403	355.200	7872.250	3624.238	18528.513	2009.745
92.267	357.800	7854.191	3493.478	18635.181	1987.412
93.148	360.400	8148.658	3391.012	18570.352	1931.253
94.039	363.100	8365.930	3369.226	18332.181	1850.733
94.939	365.700	8375.523	3273.409	18130.206	1808.327
95.823	368.400	8627.135	3247.065	18192.602	1775.204
96.688	371.000	8911.619	3088.474	18274.281	1741.564
97.554	373.700	8986.696	3015.075	18168.122	1693.563
98.421	376.300	8949.036	2984.826	18086.813	1635.458
99.307	378.900	8949.792	2910.677	18089.577	1631.438
100.173	381.600	9152.887	2847.796	18266.282	1604.128
101.039	383.900	9185.847	2818.926	18187.278	1537.246
101.922	386.500	9122.786	2771.595	18176.197	1511.171
102.791	389.200	9150.353	2727.443	18517.305	1496.312
103.657	391.800	9422.278	2729.546	18839.652	1475.466
104.524	394.400	9457.270	2720.345	18842.976	1434.367
105.390	397.100	9375.957	2693.285	19056.477	1404.550
106.280	399.700	9440.264	2651.739	19677.239	1403.862
107.147	402.300	9573.581	2619.057	20417.902	1371.101
108.013	405.000	9566.320	2614.906	20519.424	1338.029
108.879	407.600	9296.829	2563.246	21073.931	1312.878
109.744	410.200	9263.456	2536.771	21994.266	1300.180
110.611	412.500	9207.474	2531.192	22528.293	1278.041
111.478	415.200	8969.848	2531.132	22786.715	1249.542
112.351	417.800	8634.116	2514.982	23288.952	1241.576
113.216	420.400	8486.484	2480.888	23962.914	1237.737
114.084	423.100	8350.048	2492.739	24470.983	1218.841
114.950	425.700	8019.901	2471.531	24569.895	1193.727
115.816	428.300	7867.094	2482.680	25065.215	1194.927
116.682	431.000	7872.495	2467.125	25577.997	1191.062
117.549	433.600	7717.340	2445.071	25680.526	1169.512
118.416	435.900	7585.840	2490.610	25956.143	1156.385
119.284	438.500	7487.481	2445.310	26526.111	1174.758
120.152	441.200	7573.773	2432.365	26887.648	1180.322
121.019	443.800	7626.327	2489.011	26992.418	1152.592
121.899	446.500	7483.397	2514.279	27259.387	1140.881
122.767	449.100	7521.191	2514.523	27935.807	1177.206
123.634	451.800	7623.907	2516.400	28185.594	1175.994
124.520	454.400	7652.016	2531.580	27893.318	1174.224
125.386	457.100	7480.486	2543.518	28043.214	1159.587
126.255	459.700	7495.741	2546.851	28586.550	1170.909
127.122	462.400	7591.531	2537.728	28526.524	1160.199
127.988	464.700	7479.097	2535.061	28198.751	1121.440
128.853	467.300	7441.408	2558.721	28201.044	1093.576
129.723	469.900	7503.106	2567.323	28637.802	1095.040
130.591	472.600	7606.541	2586.666	28629.944	1085.834
131.457	475.300	7479.997	2588.079	28116.206	1082.147
132.367	477.900	7501.465	2625.996	27864.037	1081.123
133.235	480.500	7592.110	2611.243	28151.371	1108.355
134.102	483.200	7707.439	2652.882	27889.026	1115.436
134.967	485.800	7697.972	2694.895	27275.550	1127.829
135.836	488.400	7635.495	2698.847	26958.870	1143.781
136.700	491.100	7859.810	2747.141	27033.366	1168.443
137.583	493.700	8006.176	2875.405	26723.183	1195.038
138.450	496.300	7918.859	2910.161	25826.855	1224.024
139.319	498.600	7933.060	2940.413	25290.892	1294.828
140.211	501.600	8089.363	3003.181	24996.286	1355.048
141.078	503.900	8238.401	3110.956	24441.881	1409.024
141.954	506.600	8167.809	3197.903	23561.092	1474.571
142.820	509.200	8165.202	3263.821	23107.101	1602.586
143.689	511.800	8410.260	3375.855	23062.319	1735.573
144.554	514.500	8514.803	3538.486	22785.251	1847.940
145.423	517.100	8503.395	3779.186	22674.456	2038.233
146.290	519.700	8636.476	3948.431	22989.709	2311.269
147.156	522.400	8959.612	4134.575	23327.327	2625.007
148.021	525.000	9054.010	4359.787	23339.541	2944.785
148.887	527.300	9098.718	4665.645	24173.473	3371.424
149.753	529.900	9360.812	4946.573	25454.021	3972.506
150.620	532.600	9739.500	5278.631	26421.036	4663.074
151.487	535.200	9906.167	5687.907	27238.563	5462.636
152.350	537.900	10087.731	6143.706	28809.273	6515.399
153.218	540.500	10301.828	6668.321	30945.621	7903.121
154.085	543.200	10400.043	7327.949	33096.514	9490.578
154.963	545.800	10423.149	7948.676	34976.300	10432.721
155.832	548.400	10438.503	8601.520	37511.452	10439.807
156.698	550.700	10439.807	9324.510	41140.486	10439.807
157.564	553.400	10439.807	10144.054	44282.530	10439.807
158.427	556.000	10439.807	10431.397	47372.889	10439.807
159.296	558.700	10439.807	10439.807	51145.387	10439.807
160.165	561.300	10439.807	10439.807	54880.593	10439.807
161.053	563.900	10439.807	10439.807	57639.066	10439.807
161.919	566.600	10439.807	10439.807	58936.566	10439.807
162.785	569.200	10439.807	10439.807	60407.180	10439.807
163.668	571.900	10439.807	10439.807	60932.177	10439.807
164.534	574.500	10439.807	10439.807	59853.858	10439.807
165.401	577.100	10439.807	10439.807	58950.538	10439.807
166.267	579.400	10439.807	10439.807	59542.286	10439.807
167.135	582.100	10439.807	10439.807	59366.090	10439.807
168.028	584.700	10439.807	10439.807	58504.673	10439.807
168.895	587.300	10439.807	10439.807	58138.959	10439.807
169.761	590.000	10439.807	10439.807	58527.115	10439.807
170.632	592.600	10439.807	10439.807	57745.275	10439.807
171.522	595.200	10439.807	10439.807	57534.920	10439.807
172.390	597.900	10439.807	10439.807	57195.608	10439.807
173.259	600.500	10439.807	10439.807	57528.883	10439.807
174.124	603.200	10439.807	10439.807	57079.019	10439.807
174.993	605.800	10439.807	10439.807	55642.131	10439.807
175.860	608.400	10439.807	10439.807	54788.572	10439.807
176.728	611.100	10439.807	10439.807	54613.828	10439.807
177.618	613.700	10439.807	10439.807	53169.120	10439.807
178.488	616.300	10439.807	10439.372	50688.340	10439.807
179.357	618.600	10439.807	10435.371	48907.160	10439.807
180.224	621.300	10439.807	10404.414	48364.002	10439.807
181.092	623.900	10439.807	10282.078	47348.741	10439.807
181.959	626.600	10439.807	10205.199	45906.644	10439.807
182.824	629.200	10439.807	10073.397	45261.403	10439.807
183.689	631.800	10439.807	9910.480	45469.019	10439.807
184.581	634.500	10439.807	9753.736	44924.473	10439.807
185.449	637.100	10439.807	9692.050	43848.281	10439.807
186.316	639.800	10439.807	9560.288	43587.744	10439.807
187.183	642.400	10439.807	9448.268	43691.839	10439.807
188.050	644.700	10439.807	9349.209	43198.403	10439.807
188.917	647.300	10439.807	9233.533	42764.969	10439.807
189.782	650.000	10439.807	9220.184	42962.957	10439.807
190.650	652.600	10439.807	9067.491	42831.161	10439.807
191.518	655.300	10439.807	9012.288	42111.730	10439.807
192.388	657.900	10439.807	8950.853	42006.756	10439.807
193.256	660.500	10439.807	8867.526	42377.896	10439.807
194.120	663.100	10439.807	8802.543	42109.195	10439.807
195.005	665.800	10439.807	8741.548	41494.190	10439.807
195.889	668.400	10439.807	8729.137	41264.132	10439.807
196.773	671.100	10439.807	8641.572	41566.724	10439.807
197.638	673.700	10439.807	8527.312	41417.606	10439.807
198.505	676.300	10439.807	8540.980	40656.183	10439.807
199.382	679.000	10439.807	8490.601	40466.894	10439.807
200.249	681.300	10439.807	8417.725	40963.399	10439.807
201.122	683.900	10439.807	8343.844	40904.989	10439.807
201.998	686.600	10439.807	8312.606	40046.349	10439.807
202.865	689.200	10439.807	8265.951	39831.370	10439.807
203.733	691.800	10439.807	8178.218	40313.891	10439.807
204.599	694.500	10439.807	8190.000	40242.783	10439.807
205.464	697.100	10439.807	8115.647	39581.685	10439.807
206.331	699.800	10439.807	8025.049	39369.266	10439.807
207.200	702.400	10439.807	8028.194	39961.320	10439.807
208.078	705.100	10439.807	7943.245	39801.236	10439.807
208.970	707.700	10439.807	7887.594	39010.952	10439.807
209.836	710.300	10439.807	7861.475	38845.556	10439.807
210.704	712.600	10439.807	7839.610	39252.282	10439.807
211.572	715.300	10439.807	7746.137	39073.883	10439.807
212.440	717.900	10439.807	7793.120	38528.062	10439.791
213.308	720.600	10439.777	7757.600	38561.483	10439.807
214.171	723.200	10439.767	7694.164	38770.730	10439.470
215.037	725.900	10439.807	7648.881	38373.977	11635.152
215.906	728.500	10439.359	7665.858	38014.669	11562.987
216.771	731.100	10438.313	7649.370	38482.950	11584.767
217.640	733.700	10439.032	7606.389	38432.564	11501.648
218.507	736.000	10438.197	7521.822	37792.787	11194.980
219.376	738.600	10428.979	7531.944	37743.663	11134.418
220.242	741.300	10424.464	7447.114	38186.980	11187.555
221.107	743.900	10428.637	7351.839	38029.761	11109.570
221.985	746.600	10417.426	7340.829	37381.361	10860.241
222.853	749.200	10403.645	7300.215	37296.167	10752.516
223.720	751.800	10400.960	7290.542	37840.740	10782.141
224.595	754.400	10391.360	7229.473	37843.593	10637.391
225.463	757.100	10367.928	7253.423	37127.753	10416.783
226.329	759.700	10366.951	7319.477	37218.946	10405.932
227.209	762.000	10393.398	7325.868	37658.596	10352.681
228.077	764.700	10386.654	7256.762	37717.744	10198.086
228.943	767.300	10301.343	7120.071	37051.908	10073.982
229.810	769.900	10319.551	7151.601	37162.027	10128.303
230.675	772.500	10349.724	7031.023	37445.553	10054.902
231.541	775.200	10342.915	6996.117	37149.915	9822.450
232.409	777.900	10253.543	6977.624	36836.700	9752.807
233.276	780.500	10247.670	6904.738	37219.685	9778.916
234.141	783.100	10290.405	6785.627	37291.047	9728.238
235.008	785.400	10290.262	6903.193	36766.930	9453.258
235.873	788.000	10194.382	6823.299	36807.979	9425.187
236.741	790.700	10158.183	6768.931	37394.735	9413.801
237.608	793.300	10219.515	6735.955	37277.458	9334.936
238.496	796.000	10210.879	6664.380	36552.792	9093.657
239.362	798.600	10096.435	6703.998	36659.460	9060.657
240.229	801.300	10129.670	6658.953	37132.237	9088.473
241.097	803.900	10140.491	6580.326	37158.474	8995.472
241.992	806.500	10122.844	6511.699	36524.275	8791.829
242.858	809.200	10013.015	6512.498	36608.030	8687.899
243.767	811.800	9987.609	6482.631	37170.306	8753.785
244.633	814.400	10102.305	6447.902	37291.213	8664.503
245.500	817.100	10072.438	6429.720	36769.961	8479.951
246.365	819.700	9877.452	6354.196	36881.736	8408.029
247.244	822.300	9935.001	6338.568	37546.209	8427.706
248.110	824.900	10050.524	6357.877	37524.774	8371.335
248.978	827.300	9933.923	6223.932	36913.399	8188.541
249.843	829.900	9839.424	6223.510	37035.541	8131.189
250.713	832.500	9913.656	6176.596	37659.449	8150.116
251.580	835.200	9984.394	6221.610	37777.223	8046.313
252.446	837.800	9815.506	6236.998	37322.073	7856.591
253.315	840.400	9771.511	6167.131	37450.737	7907.002
