Mon, Oct 16, 2017	3:08 PM
 Notes: GUA_top chamber_1E-8_30 sec__101617
 waiting time: 50.000
 time(s)	 temp (K)	 MS1=1.971	 MS2=14.708	 MS3=27.883	 MS4=125.586	 MS5=109.505	 MS6=125.586	 MS7=109.505	 MS8=125.586
0.000	99.600	5351.253	995.767	16287.624	50.120
1.008	99.600	5384.166	994.928	16463.361	51.835
1.871	99.600	5475.119	1002.269	16554.300	53.203
2.764	99.500	5473.498	986.248	16472.812	52.706
3.664	99.500	5408.910	999.490	16431.941	55.788
4.559	99.500	5412.303	990.247	16441.557	58.212
5.442	99.500	5459.434	1015.620	16733.986	58.184
6.349	99.600	5515.662	987.289	16820.886	61.556
7.242	99.600	5529.907	1016.398	17523.403	60.984
8.151	99.700	5552.591	1090.467	20706.751	64.546
9.017	100.000	5597.170	1178.444	22789.250	67.276
9.916	100.700	5719.900	1225.907	22202.711	67.030
10.797	101.900	5653.333	1265.546	23117.124	68.448
11.663	103.600	5708.902	1416.096	24307.804	71.696
12.541	106.100	5712.833	1497.983	24993.522	72.231
13.406	109.200	5777.714	1561.245	25027.044	76.333
14.301	112.700	5699.706	1648.985	24246.847	75.001
15.194	116.400	5728.815	1764.509	23249.431	75.117
16.060	120.200	5673.771	1707.323	22680.111	79.873
16.942	124.000	5705.044	1737.055	22810.584	82.782
17.808	127.600	5706.838	1721.966	22584.996	80.488
18.673	131.100	5616.467	1702.853	22116.282	83.396
19.539	134.500	5636.296	1705.892	22159.178	84.930
20.403	137.900	5688.676	1695.551	22218.313	87.959
21.301	141.200	5715.256	1687.290	22172.780	91.343
22.165	144.500	5661.736	1706.090	21749.841	92.060
23.050	147.700	5652.877	1699.312	21544.670	96.207
23.956	150.900	5620.059	1603.965	21481.815	96.138
24.856	154.100	5698.998	1602.016	21240.358	97.188
25.738	157.100	5629.319	1586.122	20851.590	97.046
26.633	160.100	5573.674	1585.586	20679.139	99.162
27.517	163.100	5578.806	1649.664	20725.130	106.443
28.396	166.000	5620.768	1650.064	20868.721	105.283
29.261	168.900	5628.065	1691.773	20649.043	109.150
30.143	171.700	5546.865	1714.945	20413.584	113.143
31.044	174.500	5545.436	1684.711	20242.228	118.099
31.911	177.300	5597.870	1654.100	20349.736	122.323
32.809	180.100	5553.662	1617.217	20267.255	133.149
33.677	182.800	5551.326	1616.762	19920.429	140.647
34.569	185.600	5486.573	1607.518	19864.350	156.719
35.434	188.300	5513.466	1538.986	20002.897	178.998
36.292	191.000	5556.390	1517.674	19864.541	203.457
37.157	193.700	5498.378	1506.188	19644.621	235.963
38.022	196.400	5453.252	1456.064	19638.049	271.221
38.889	199.100	5546.697	1436.080	19847.016	306.296
39.755	201.800	5571.549	1439.658	19718.836	346.606
40.619	204.100	5530.826	1458.541	19615.098	401.206
41.482	206.800	5525.562	1450.169	19817.352	471.934
42.347	209.400	5658.863	1478.848	19903.476	539.390
43.210	212.100	5678.937	1490.031	19730.401	593.837
44.076	214.800	5661.986	1502.847	19754.371	650.627
44.942	217.400	5781.054	1554.785	20045.424	716.658
45.809	220.100	5900.710	1573.950	20042.495	778.804
46.686	222.700	5951.842	1609.104	19870.463	809.102
47.571	225.400	5992.987	1603.385	19843.309	795.052
48.446	228.000	6044.512	1565.601	19915.563	739.837
49.314	230.300	6167.616	1539.648	19808.144	639.780
50.212	233.300	6156.189	1498.600	19413.021	541.890
51.078	236.000	6105.427	1492.288	19393.955	471.646
51.943	238.300	6120.197	1436.671	19506.163	423.976
52.811	240.900	6149.028	1388.287	19387.243	388.618
53.677	243.600	6062.660	1408.740	19159.744	361.488
54.543	246.200	6052.062	1439.960	19190.184	348.368
55.441	248.800	6082.443	1380.351	19268.310	328.740
56.312	251.500	6152.021	1377.778	19270.424	318.752
57.200	254.100	6098.819	1411.510	19079.581	311.225
58.066	256.800	6053.439	1383.579	19014.167	303.475
58.933	259.400	6140.490	1405.929	19273.366	299.473
59.831	262.100	6227.214	1383.051	19142.206	294.660
60.697	264.700	6191.119	1435.470	19033.832	296.610
61.579	267.300	6220.532	1462.303	19074.983	293.888
62.443	270.000	6277.593	1453.981	19182.632	289.405
63.309	272.600	6380.195	1423.041	18991.865	290.452
64.194	275.200	6393.599	1443.028	18842.823	293.353
65.059	277.900	6439.328	1488.561	18812.268	288.494
65.923	280.200	6602.808	1512.607	19066.985	290.658
66.788	282.800	6759.908	1563.286	19078.919	292.537
67.653	285.500	6773.837	1629.285	18928.157	292.264
68.534	288.100	6944.770	1669.566	18876.142	294.594
69.401	290.800	7119.522	1606.913	18980.899	290.563
70.269	293.400	7194.847	1655.994	18824.393	293.006
71.134	296.000	7215.520	1676.359	18650.248	289.951
72.001	298.700	7419.237	1747.433	18822.177	291.518
72.895	301.300	7719.334	1809.899	18931.838	295.687
73.763	304.000	7831.878	1779.046	18817.656	290.109
74.667	306.600	7952.463	1898.173	18822.088	296.920
75.533	309.200	8167.813	1972.482	18777.396	297.058
76.399	311.800	8494.050	1932.299	18879.950	295.769
77.303	314.500	8764.550	1996.841	18847.472	295.294
78.197	317.100	8932.151	2037.117	18512.210	294.090
79.081	319.800	9131.343	2085.946	18547.490	296.821
79.987	322.400	9324.124	2162.505	18697.908	293.548
80.859	325.000	9663.109	2167.407	18751.248	294.389
81.727	327.700	9810.418	2251.897	18636.174	297.368
82.621	330.300	9806.211	2289.601	18552.241	290.923
83.511	333.000	9734.352	2320.685	18669.200	287.283
84.415	335.900	9790.446	2254.602	18776.785	290.605
85.281	338.200	9545.050	2194.557	18732.755	286.432
86.149	340.900	9181.910	2156.251	18501.741	283.815
87.030	343.500	8856.092	2019.964	18501.805	279.953
87.925	346.500	8779.879	1898.578	18714.847	281.097
88.794	348.800	8620.434	1835.405	18789.164	283.895
89.662	351.400	8460.916	1785.628	18556.915	278.756
90.528	354.100	8410.257	1677.659	18510.198	284.491
91.420	356.700	8596.288	1582.856	18683.617	280.903
92.316	359.300	8702.226	1530.885	18682.573	278.263
93.182	362.000	8802.635	1520.682	18481.834	281.384
94.048	364.600	8920.293	1478.994	18585.712	280.748
94.913	367.300	9248.735	1444.453	18695.959	279.460
95.778	369.900	9368.987	1409.313	18809.861	279.981
96.636	372.500	9355.029	1409.904	18621.706	280.600
97.501	375.200	9377.497	1389.396	18728.946	284.091
98.365	377.500	9517.097	1329.321	18842.441	283.044
99.232	380.100	9579.168	1352.783	18740.155	280.445
100.100	382.800	9485.486	1355.897	18847.879	283.976
100.966	385.400	9558.357	1304.613	19179.218	279.285
101.832	388.100	9709.897	1305.870	19384.402	281.363
102.712	390.700	9859.340	1347.631	19510.124	285.648
103.593	393.300	9855.234	1341.789	19731.203	282.683
104.459	396.000	9894.122	1334.221	20315.551	284.648
105.327	398.600	10084.408	1346.542	20766.256	288.749
106.194	401.200	10037.250	1351.601	20911.426	287.879
107.058	403.500	9927.099	1371.627	21490.374	288.868
107.925	406.200	9882.011	1322.997	22105.468	283.369
108.791	408.800	9811.809	1318.929	22699.840	283.281
109.683	411.400	9564.127	1326.635	22916.131	284.220
110.549	414.100	9230.488	1289.414	23259.658	286.464
111.410	416.700	9113.937	1307.345	24172.072	284.042
112.278	419.400	8878.443	1288.987	24596.476	286.995
113.144	422.000	8486.801	1323.649	24991.764	285.077
114.010	424.600	8343.239	1321.344	25617.671	288.545
114.877	427.300	8270.454	1317.857	26314.534	288.600
115.745	429.600	8139.728	1329.711	26480.579	288.564
116.610	432.200	7903.024	1356.262	26955.279	289.959
117.512	435.200	7801.868	1304.230	27307.556	285.224
118.397	437.800	7841.848	1297.448	27924.739	290.297
119.266	440.100	7808.892	1308.061	28230.159	290.786
120.131	442.800	7641.083	1308.208	28251.977	289.685
120.998	445.400	7612.881	1305.076	28671.668	286.660
121.866	448.100	7679.447	1282.924	29066.524	288.083
122.734	450.700	7680.037	1299.995	28990.296	291.394
123.600	453.300	7481.422	1303.903	29110.197	291.130
124.491	456.000	7494.249	1296.024	29658.947	292.969
125.357	458.600	7581.174	1305.639	29864.984	287.170
126.265	461.200	7583.903	1297.192	29876.141	291.028
127.134	463.900	7395.632	1311.999	29768.875	287.830
128.002	466.500	7413.366	1315.751	30089.515	285.121
128.869	469.200	7494.878	1279.715	30298.367	290.792
129.735	471.800	7531.035	1290.224	30027.387	292.294
130.600	474.400	7389.916	1284.580	30000.322	291.550
131.468	476.700	7471.616	1308.131	30372.290	294.660
132.334	479.400	7622.097	1297.374	30200.169	292.189
133.203	482.000	7685.791	1315.615	29781.446	290.935
134.069	484.700	7643.172	1322.918	29435.906	293.166
134.937	487.300	7702.338	1308.979	29421.960	291.994
135.825	490.000	7852.459	1338.380	28944.954	289.374
136.693	492.600	7888.927	1371.634	28197.388	299.488
137.598	495.200	7875.865	1384.326	27513.721	297.029
138.461	497.900	7907.103	1383.756	27034.767	289.745
139.327	500.500	8066.134	1380.617	26193.996	293.603
140.195	503.100	8064.567	1411.747	25158.624	298.140
141.061	505.800	7882.957	1402.064	24169.996	293.583
141.965	508.400	7913.826	1374.605	23344.368	294.059
142.832	511.000	7995.239	1386.713	22483.970	294.370
143.693	513.700	8013.897	1428.899	21448.815	294.552
144.558	516.000	7839.117	1405.833	20663.842	295.466
145.422	518.600	7923.090	1392.385	20332.325	294.384
146.287	521.300	7894.791	1402.966	19880.092	295.316
147.154	523.900	7731.487	1396.270	19237.971	294.130
148.019	526.500	7785.292	1428.812	19091.413	298.186
148.883	529.200	7891.220	1420.961	19074.142	298.447
149.748	531.900	7912.062	1424.439	18788.897	299.185
150.612	534.200	7761.718	1481.506	18684.165	296.592
151.477	536.800	7730.529	1455.017	18690.814	296.183
152.344	539.400	7802.249	1448.925	18712.147	302.338
153.212	542.000	7832.694	1487.952	18438.848	304.978
154.107	544.700	7574.876	1493.979	18365.970	305.499
154.974	547.300	7604.367	1539.205	18605.237	303.709
155.841	550.000	7556.682	1510.955	18564.901	303.837
156.701	552.600	7559.585	1593.109	18495.933	307.591
157.564	555.200	7301.448	1557.145	18404.613	308.413
158.432	557.900	7313.178	1543.189	18527.838	307.363
159.298	560.200	6322.646	1272.670	17412.609	284.163
160.166	562.800	6871.459	1537.988	17877.464	301.889
161.057	565.500	6797.131	1522.526	18013.540	307.491
161.963	568.400	6803.845	1531.330	18341.886	304.625
162.853	571.100	6859.752	1527.797	18398.130	305.663
163.721	573.700	6829.458	1552.610	18185.559	309.673
164.586	576.000	6681.457	1544.834	18130.155	316.117
165.453	578.600	6668.294	1542.190	18310.032	313.399
166.318	581.300	6767.587	1525.711	18224.468	311.623
167.185	583.900	6694.949	1514.415	18016.087	319.219
168.049	586.500	6656.960	1538.400	17998.116	321.780
168.951	589.200	6680.267	1486.817	18106.019	316.773
169.817	591.800	6805.330	1512.712	18107.077	312.224
170.681	594.500	6763.239	1498.332	17924.742	318.895
171.587	597.100	6695.355	1530.768	17919.061	320.709
172.455	599.800	6747.311	1537.061	18199.148	321.216
173.321	602.400	6876.020	1533.500	18228.773	322.368
174.190	605.000	6918.552	1548.543	18090.315	324.575
175.082	607.600	6862.614	1555.786	18073.911	324.438
176.014	610.300	6926.655	1556.525	18140.421	326.253
176.879	612.900	6992.574	1567.377	18240.937	327.533
177.745	615.600	7002.627	1518.151	18065.467	327.323
178.611	618.200	6860.897	1537.330	18004.650	328.599
179.517	620.800	6902.205	1546.473	18030.314	325.816
180.385	623.500	6974.222	1519.629	18207.070	327.235
181.253	626.100	7030.520	1566.193	18215.833	329.308
182.119	628.700	6920.139	1565.462	18063.887	330.411
182.985	631.400	6879.304	1544.290	18208.892	332.736
183.851	634.000	7015.889	1540.357	18295.984	333.215
184.716	636.700	7042.083	1570.975	18109.000	326.529
185.582	639.000	6895.594	1593.839	18109.216	332.071
186.447	641.600	6956.846	1569.832	18304.402	334.130
187.315	644.200	7018.052	1542.051	18351.374	332.183
188.181	646.900	7030.285	1605.768	18252.438	342.391
189.084	649.500	6947.561	1585.154	18231.652	334.810
189.951	652.200	7029.776	1586.098	18486.725	341.621
190.816	654.800	7123.297	1583.742	18437.651	336.637
191.684	657.400	7073.313	1599.399	18251.533	339.159
192.552	660.100	7006.899	1599.399	18268.995	342.368
193.415	662.700	7077.408	1576.664	18393.265	343.294
194.281	665.000	7126.341	1630.260	18581.420	346.519
195.177	668.000	7106.661	1635.653	18307.790	347.681
196.043	670.600	6987.165	1627.572	18316.273	347.016
196.909	672.900	7057.734	1567.602	18446.414	350.448
197.775	675.600	7005.728	1556.161	18422.151	352.025
198.676	678.200	6999.723	1559.752	18186.539	351.168
199.541	680.900	6899.209	1572.298	18205.045	352.296
200.407	683.500	6943.567	1569.777	18454.387	355.047
201.273	686.100	6979.058	1590.977	18543.504	354.693
202.142	688.800	6788.354	1596.346	18272.574	354.588
203.008	691.400	6738.204	1593.896	18352.623	361.464
203.874	694.100	6773.963	1579.663	18517.267	363.127
204.731	696.400	6741.135	1601.134	18374.007	365.602
205.594	699.000	6512.242	1621.729	18321.444	365.044
206.488	701.700	6436.964	1619.690	18537.849	360.539
207.353	704.300	6432.421	1587.420	18601.862	363.946
208.247	706.900	6306.018	1564.539	18340.740	369.505
209.114	709.600	6081.970	1598.424	18337.988	367.328
210.006	712.200	6001.080	1586.761	18315.598	373.832
210.876	714.800	5988.378	1553.982	18429.869	370.391
211.740	717.400	5942.054	1621.536	18417.833	368.442
212.604	720.100	5731.431	1589.355	18310.045	371.612
213.469	722.700	5661.401	1604.511	18551.286	372.429
214.338	725.300	5699.768	1583.334	18526.450	373.830
215.203	728.000	5653.944	1587.258	18390.475	379.720
216.093	730.600	5546.692	1603.152	18408.497	380.575
216.954	733.200	5527.833	1556.525	18503.116	375.915
217.817	735.500	5606.168	1585.368	18663.201	375.798
218.683	738.200	5526.326	1611.526	18479.541	381.054
219.581	740.800	5478.358	1591.614	18439.001	379.557
220.447	743.500	5425.466	1569.189	18607.695	385.564
221.313	746.100	5546.746	1595.278	18747.427	391.344
222.180	748.700	5496.868	1596.123	18546.752	393.366
223.046	751.400	5467.867	1645.876	18634.557	392.430
223.910	754.000	5471.154	1612.656	18875.046	389.447
224.781	756.600	5559.154	1653.435	18944.638	397.886
225.648	759.300	5457.343	1679.470	18796.195	400.354
226.513	761.900	5455.436	1674.374	18891.833	398.279
227.380	764.200	5588.416	1703.244	19203.137	406.324
228.262	766.900	5604.710	1758.837	19234.673	410.003
229.128	769.500	5483.967	1695.387	19014.332	408.940
229.995	772.100	5491.875	1726.261	19245.932	404.773
230.860	774.800	5561.498	1703.897	19281.823	410.251
231.727	777.400	5492.956	1644.980	19082.141	409.367
232.591	780.100	5482.886	1726.350	19200.679	416.491
233.458	782.700	5461.233	1685.590	19423.796	413.661
234.323	785.300	5535.922	1672.892	19357.707	412.311
235.189	787.600	5506.605	1679.983	19219.414	421.697
236.057	790.200	5434.048	1670.484	19178.339	420.964
236.923	792.900	5490.119	1684.289	19551.797	423.897
237.791	795.500	5525.512	1665.987	19503.272	418.665
238.658	798.200	5449.889	1716.594	19454.198	425.670
239.524	800.800	5457.921	1738.053	19660.694	431.587
240.391	803.400	5560.837	1738.135	19879.481	429.398
241.256	806.000	5537.346	1722.903	19841.997	437.003
242.123	808.400	5491.298	1765.455	19860.682	438.699
242.991	811.000	5476.185	1760.715	20066.859	439.339
243.860	813.600	5576.101	1751.650	20227.097	435.273
244.725	816.300	5554.802	1738.018	20115.003	447.198
245.622	818.900	5517.719	1776.315	20199.739	448.485
246.508	821.500	5493.867	1791.194	20426.231	444.582
247.367	824.200	5623.615	1771.678	20640.586	446.894
248.231	826.800	5577.588	1796.410	20597.103	451.808
249.097	829.500	5471.618	1777.744	20584.609	449.184
249.962	832.100	5469.674	1751.738	20892.907	448.999
250.829	834.700	5565.947	1760.138	20959.392	450.843
251.696	837.400	5574.347	1769.228	20875.777	461.253
252.561	839.700	5518.974	1797.164	21068.912	464.387
253.429	842.300	5564.460	1781.996	21393.463	463.883
254.298	844.900	5603.436	1812.273	21652.891	463.841
255.162	847.600	5540.960	1856.982	21590.661	474.554
256.031	850.200	5574.365	1864.113	21782.790	471.948
256.899	852.800	5605.879	1830.001	22117.581	469.891
257.764	855.500	5652.655	1819.742	22200.953	476.714
258.629	858.100	5554.331	1837.538	22115.161	473.084
259.499	860.400	5513.255	1776.284	22257.338	473.322
260.359	863.000	5587.125	1775.114	22560.376	471.829
