Mon, Oct 16, 2017	2:43 PM
 Notes: GUA_top chamber_2E-8 to 8E-08_17 sec__101617
 waiting time: 50.000
 time(s)	 temp (K)	 MS1=1.971	 MS2=14.708	 MS3=27.883	 MS4=125.586	 MS5=109.505	 MS6=125.586	 MS7=109.505	 MS8=125.586
0.000	99.000	5420.077	1400.121	18385.406	402.259
0.879	99.000	5401.590	1364.187	18272.014	398.469
1.735	99.000	5470.363	1343.449	18412.802	403.855
2.602	99.000	5504.776	1384.685	18235.307	405.654
3.465	99.000	5391.805	1365.379	18147.604	409.444
4.332	99.100	5399.352	1380.886	18461.023	411.172
5.197	99.100	5461.272	1375.535	18410.408	416.472
6.064	99.100	5491.023	1396.295	18211.082	410.576
6.929	99.100	5379.299	1403.153	18303.613	416.534
7.796	99.100	5441.840	1387.104	18467.251	409.643
8.663	99.100	5478.033	1404.932	18523.711	418.312
9.529	99.200	5393.681	1440.564	18374.988	417.678
10.395	99.300	5419.830	1446.653	18545.019	420.710
11.258	99.500	5487.900	1456.269	19425.057	422.552
12.124	100.100	5510.106	1493.711	20076.310	429.598
12.992	101.200	5452.141	1579.815	21105.351	435.658
13.854	102.600	5506.011	1725.841	23362.365	434.534
14.721	104.900	5656.826	1859.114	24807.047	442.236
15.585	107.800	5659.782	1991.218	24598.756	436.729
16.450	111.200	5622.531	2067.452	24616.650	438.024
17.315	114.900	5614.572	2149.428	24945.238	437.144
18.182	118.700	5636.261	2151.330	24830.533	435.367
19.047	122.400	5629.627	2212.222	24495.539	444.218
19.912	126.000	5580.592	2229.030	24577.906	442.018
20.777	129.100	5666.028	2254.325	25021.007	445.620
21.642	132.500	5642.104	2204.256	24865.202	446.452
22.507	135.900	5581.656	2294.600	24639.550	456.256
23.374	139.200	5603.054	2289.728	24685.886	451.972
24.240	142.500	5679.884	2269.729	24772.251	459.032
25.106	145.800	5728.735	2316.405	24378.733	461.858
25.972	149.000	5619.763	2364.747	24202.818	466.331
26.838	151.700	5627.590	2341.002	24335.570	469.509
27.702	154.800	5663.118	2307.015	24165.462	480.428
28.568	157.900	5666.051	2479.741	23754.953	501.703
29.434	160.800	5588.867	2735.761	23769.511	552.560
30.300	163.800	5607.825	3131.130	24330.386	620.199
31.165	166.600	5686.818	3566.893	24626.534	723.859
32.031	169.500	5632.115	3806.765	24477.772	878.663
32.897	172.300	5708.562	3724.643	24988.414	1158.460
33.765	174.800	5780.905	3587.418	25579.755	1473.564
34.629	177.600	5760.307	3658.647	25860.288	1798.016
35.492	180.300	5735.141	3868.619	25391.001	1800.929
36.358	183.100	5766.674	4122.214	25703.974	2004.615
37.225	185.800	5821.235	4571.991	26180.330	2487.305
38.092	188.500	5856.269	5338.625	26528.582	3453.287
38.959	191.200	5901.602	6443.051	28128.077	5411.279
39.823	193.900	5983.213	7445.005	31078.246	9208.587
40.689	196.300	6142.457	8295.108	35297.487	10439.807
41.553	199.000	6221.056	10036.147	42213.366	10439.807
42.420	201.700	6475.787	10439.807	55711.392	10439.807
43.284	204.400	6916.870	10439.807	75151.721	10439.807
44.150	207.000	7370.336	10439.807	61582.041	10439.807
45.016	209.700	6831.010	9785.160	44606.609	10439.807
45.884	212.300	6688.910	8071.209	39975.687	10439.807
46.750	215.000	6643.370	7103.856	37880.681	10439.807
47.618	217.300	6638.257	6547.713	35732.335	10371.043
48.482	220.000	6564.767	6201.584	34256.588	9587.941
49.348	222.600	6575.921	5950.078	33811.946	8817.948
50.213	225.300	6698.088	5631.909	33048.180	8117.776
51.080	227.900	6728.755	5418.835	31650.991	7479.463
51.946	230.600	6643.770	5149.386	30842.672	6826.317
52.814	233.200	6670.728	4840.182	30591.102	6218.262
53.678	235.900	6696.091	4715.631	29996.373	5661.522
54.542	238.200	6676.997	4540.250	28776.018	5231.685
55.409	240.800	6610.999	4387.189	28257.466	4847.229
56.276	243.500	6702.585	4240.336	28365.726	4526.995
57.143	246.100	6705.372	4137.555	27940.252	4245.449
58.010	248.700	6622.235	4060.362	27043.186	3985.678
58.877	251.400	6560.182	3928.963	26814.095	3797.599
59.740	254.000	6662.864	3846.284	26861.870	3599.077
60.604	256.300	6658.943	3752.163	26198.441	3429.299
61.470	259.000	6601.103	3708.120	25870.197	3296.207
62.336	261.600	6585.116	3611.047	26059.015	3144.129
63.201	264.300	6644.142	3565.787	25855.754	3031.377
64.067	266.900	6710.473	3534.270	25243.067	2932.838
64.934	269.500	6672.210	3506.716	25055.141	2833.245
65.796	272.100	6702.127	3419.256	25277.506	2764.840
66.662	274.800	6804.222	3360.565	25052.008	2657.852
67.527	277.100	6724.735	3352.699	24442.263	2575.386
68.392	279.700	6796.803	3328.658	24373.588	2497.598
69.258	282.400	6942.702	3306.507	24534.309	2414.749
70.125	285.100	7030.912	3308.455	24306.110	2362.209
70.993	287.700	6995.372	3309.114	23926.959	2308.254
71.862	290.400	7109.067	3266.750	24007.975	2247.812
72.729	293.000	7283.255	3221.938	24033.295	2190.310
73.594	295.600	7387.064	3266.561	23721.176	2126.913
74.462	297.900	7418.127	3278.716	23539.070	2103.227
75.330	300.600	7529.875	3254.537	23830.569	2044.523
76.196	303.200	7836.492	3270.158	23713.751	2015.506
77.062	305.800	7904.328	3275.743	23275.935	1963.730
77.928	308.500	8053.510	3373.619	23319.328	1949.022
78.796	311.100	8292.255	3366.432	23559.589	1907.339
79.661	313.700	8545.571	3364.882	23503.778	1869.612
80.530	316.400	8688.335	3450.868	23129.211	1848.750
81.396	319.000	8991.428	3553.836	23078.788	1813.982
82.263	321.300	9314.702	3492.889	23409.146	1787.759
83.129	323.900	9504.663	3560.079	23341.961	1747.633
83.996	326.600	9558.316	3618.936	22977.609	1725.750
84.864	329.200	9672.718	3631.411	23120.347	1695.626
85.731	331.900	9829.985	3619.108	23301.828	1660.635
86.597	334.500	9802.745	3619.008	23020.964	1642.722
87.464	337.200	9639.627	3566.143	22816.544	1602.623
88.333	339.800	9547.292	3571.070	23267.465	1585.036
89.200	342.100	9451.354	3453.875	23181.813	1566.779
90.067	344.700	9317.692	3439.312	22801.655	1542.340
90.935	347.400	9061.001	3385.050	22834.401	1512.211
91.803	350.000	8936.589	3231.183	23081.717	1496.772
92.670	352.600	9016.901	3220.969	23121.569	1475.210
93.534	355.300	8944.278	3153.389	22744.851	1457.810
94.401	357.900	8968.178	3109.827	22784.092	1436.631
95.267	360.600	9148.455	3066.171	23169.267	1410.704
96.133	363.200	9257.466	2963.242	22980.679	1408.624
96.999	365.500	9246.082	2929.186	22721.696	1385.042
97.866	368.200	9382.106	2880.934	22841.559	1366.586
98.731	370.800	9600.803	2799.683	23145.947	1349.253
99.598	373.400	9759.210	2826.949	22941.552	1351.580
100.463	376.100	9737.339	2814.303	22895.956	1329.930
101.330	378.700	9844.018	2819.866	23446.998	1309.216
102.196	381.300	9989.580	2790.670	23491.601	1303.356
103.064	384.000	10007.160	2744.382	23076.470	1289.980
103.932	386.300	10015.142	2761.346	23277.553	1283.937
104.800	388.900	10090.928	2703.905	23842.682	1269.253
105.668	391.600	10185.572	2710.868	24043.523	1241.278
106.534	394.200	10143.198	2669.863	23800.983	1235.485
107.399	396.900	10184.257	2656.109	24122.502	1236.938
108.265	399.500	10254.725	2622.175	24887.771	1225.975
109.130	402.100	10278.676	2581.664	25252.951	1220.085
109.998	404.700	10245.985	2608.394	25494.714	1206.825
110.864	407.100	10200.382	2617.006	26228.830	1203.641
111.733	409.700	10205.300	2580.606	27256.126	1194.477
112.598	412.300	10165.631	2618.820	27433.520	1189.294
113.467	415.000	9915.415	2602.323	27801.680	1186.389
114.331	417.600	9792.282	2624.865	28831.969	1173.278
115.197	420.200	9694.497	2568.674	29218.062	1175.966
116.062	422.900	9524.102	2616.399	29208.369	1170.613
116.930	425.500	9197.297	2571.495	29479.567	1153.864
117.797	427.800	9108.536	2560.281	30463.419	1151.479
118.666	430.400	9042.037	2583.530	30806.424	1153.511
119.533	433.100	8807.564	2563.860	30710.302	1140.935
120.401	435.700	8772.807	2602.470	31080.029	1140.111
121.267	438.300	8755.395	2547.614	31976.395	1136.187
122.132	441.000	8747.645	2554.817	32243.032	1123.816
122.996	443.700	8614.887	2561.073	31979.222	1131.117
123.863	446.300	8595.142	2573.534	32488.591	1123.552
124.728	448.600	8675.320	2533.778	32977.161	1112.094
125.595	451.200	8626.618	2543.008	32818.758	1118.364
126.462	453.900	8532.339	2601.143	32932.915	1107.172
127.328	456.500	8454.377	2567.469	33574.666	1103.137
128.193	459.200	8531.457	2563.614	33762.873	1101.656
129.061	461.800	8514.423	2587.935	33174.614	1099.872
129.929	464.500	8409.424	2578.126	33189.694	1094.454
130.794	467.100	8428.959	2565.109	33791.823	1095.239
131.664	469.700	8461.624	2589.696	34088.786	1084.833
132.530	472.000	8419.246	2625.333	33445.519	1089.574
133.399	474.700	8329.732	2592.558	33543.462	1092.900
134.267	477.300	8447.736	2582.186	33895.459	1085.995
135.133	480.000	8474.257	2575.952	33660.268	1095.430
136.000	482.600	8353.861	2600.477	32947.663	1092.614
136.868	485.200	8322.775	2593.226	32938.226	1091.286
137.733	487.900	8592.304	2625.077	33051.122	1107.830
138.602	490.500	8629.641	2618.848	32030.639	1116.314
139.468	493.100	8577.316	2691.499	31353.773	1134.389
140.335	495.500	8634.451	2701.173	31287.811	1133.754
141.200	498.100	8737.879	2693.504	30594.655	1154.602
142.066	500.700	8795.474	2748.969	29460.335	1174.354
142.934	503.300	8728.054	2756.925	28764.555	1189.278
143.800	506.000	8809.144	2789.072	28541.540	1220.093
144.668	508.600	8894.302	2802.193	27816.772	1262.113
145.536	511.300	8838.277	2844.135	26641.809	1293.037
146.403	513.900	8771.665	2888.276	26045.820	1338.835
147.269	516.200	8892.734	2881.025	25963.683	1385.988
148.137	518.900	8944.072	2928.010	25576.749	1450.076
149.003	521.500	8876.350	3033.366	25118.454	1514.971
149.867	524.100	8931.427	3051.175	25068.145	1597.491
150.734	526.800	9066.374	3086.502	25229.617	1675.631
151.600	529.400	9076.936	3110.567	24979.957	1785.610
152.467	532.000	8982.715	3213.436	25023.198	1872.706
153.335	534.700	9078.236	3276.661	25540.756	1987.744
154.203	537.000	9309.367	3342.226	25743.915	2092.297
155.068	539.600	9280.492	3413.173	25325.548	2194.155
155.935	542.300	9241.558	3491.637	25594.185	2287.164
156.801	544.900	9252.200	3516.100	26153.761	2364.071
157.669	547.500	9264.875	3566.276	26225.633	2454.680
158.536	550.200	9292.214	3687.725	26108.267	2531.279
159.400	552.800	9203.926	3686.019	25993.218	2603.209
160.267	555.500	9176.782	3666.280	26448.419	2633.178
161.136	558.100	9149.907	3734.739	26555.915	2695.232
162.003	560.400	8965.803	3782.889	26181.756	2725.302
162.869	563.100	8920.646	3813.094	26323.309	2770.703
163.737	565.700	8977.585	3764.664	26602.581	2774.117
164.604	568.300	8925.556	3797.324	26277.980	2792.392
165.470	571.000	8817.964	3851.618	26190.417	2799.022
166.338	573.600	8845.172	3869.436	26725.118	2814.949
167.204	576.200	8970.988	3880.989	26710.089	2816.525
168.072	578.900	8975.026	3895.033	26313.744	2808.230
168.938	581.200	8899.790	3937.506	26296.193	2809.864
169.805	583.800	8909.337	3871.469	26624.653	2759.557
170.671	586.500	8997.184	3835.162	26587.017	2724.094
171.537	589.100	8956.846	3886.828	26236.230	2659.132
172.403	591.700	8889.091	3844.471	26026.690	2621.482
173.273	594.400	8947.641	3749.656	26343.343	2577.988
174.141	597.000	8970.050	3722.691	26259.359	2544.787
175.008	599.700	8876.859	3720.078	25737.330	2506.403
175.876	602.300	8868.510	3688.661	25688.117	2496.514
176.745	604.600	9057.030	3681.411	26008.005	2465.394
177.609	607.200	9078.185	3672.168	25803.624	2446.737
178.476	609.900	8962.983	3676.577	25516.582	2442.664
179.342	612.500	9025.735	3685.559	25892.677	2423.207
180.211	615.100	9161.605	3654.591	25960.779	2403.409
181.077	617.800	9236.887	3650.494	25538.374	2400.897
181.945	620.400	9146.083	3683.023	25633.439	2390.638
182.813	623.100	9186.320	3654.714	26029.950	2387.361
183.680	625.400	9375.089	3664.818	26148.527	2386.931
184.546	628.000	9294.556	3660.189	25606.311	2376.327
185.412	630.600	9367.442	3698.517	25724.186	2371.671
186.271	633.300	9396.855	3635.875	26206.770	2380.623
187.131	635.900	9408.919	3612.148	26046.877	2350.550
187.995	638.600	9372.709	3673.944	25696.548	2341.334
