Tue, Oct 24, 2017	2:51 PM
 Notes: 400 L H2 then 0.005 L GUA_round 2_102417
 waiting time: 50.000
 time(s)	 temp (K)	 MS1=1.971	 MS2=14.745	 MS3=27.883	 MS4=29.015	 MS5=111.548	 MS6=84.866	 MS7=56.522	 MS8=125.586
0.000	100.100	23647.814	1238.653	15171.656	816.530	0.306	0.810	11.823	2.357
2.863	100.200	23892.634	1225.986	14993.499	820.502	0.182	0.545	13.169	2.258
4.623	100.200	23747.706	1214.219	14995.002	806.041	0.277	0.730	12.037	2.080
6.345	100.200	23533.059	1197.397	14837.210	818.975	0.182	0.963	12.381	2.709
8.088	100.300	23256.054	1192.950	14903.312	799.056	0.160	1.130	12.396	1.985
9.849	100.200	23487.895	1205.391	15060.862	810.445	0.496	0.713	11.716	2.268
11.560	100.300	23292.302	1321.487	26911.185	1004.761	0.470	0.891	12.239	2.392
13.275	101.100	23663.314	1988.530	51273.440	1043.981	0.305	0.927	12.793	2.053
14.995	103.400	23472.471	3724.978	61464.675	1043.981	0.293	1.037	14.512	2.081
16.716	108.600	24723.675	6526.389	60493.266	1043.981	0.382	1.095	14.060	4.124
18.436	116.100	24571.041	6991.090	49972.462	1043.981	0.185	1.063	14.309	4.542
20.186	124.100	24736.513	7272.716	43511.771	1043.981	-0.051	0.984	13.837	3.802
21.903	131.000	24360.724	7281.954	40787.101	1043.785	0.344	1.131	14.711	3.718
23.621	137.700	25002.501	7407.571	40910.020	1043.458	0.331	0.657	14.211	4.222
25.357	144.000	25683.124	7558.545	40166.912	1043.348	0.192	1.215	13.217	3.567
27.104	150.300	26365.072	7268.780	38879.830	1043.712	0.295	1.292	13.320	3.915
28.852	156.100	27019.356	6736.699	36277.646	1043.065	-0.043	1.453	13.096	3.440
30.574	162.100	27218.490	6096.623	34631.906	1041.353	0.293	0.952	13.856	3.628
32.369	167.900	27318.459	5483.211	32795.488	1041.372	0.598	0.644	13.331	4.947
34.094	173.600	26942.874	4928.667	31829.136	1040.157	0.819	1.506	13.718	10.037
35.813	179.100	26699.123	4454.100	30439.475	1040.619	2.262	1.386	14.742	28.540
37.550	184.600	26151.227	4054.395	29552.827	1038.175	6.306	1.109	14.865	80.888
39.301	189.700	26187.971	3658.811	28383.952	1041.180	16.919	1.249	16.402	180.036
41.019	195.100	26154.729	3325.003	27756.491	1042.624	24.696	1.224	15.931	175.755
42.739	200.500	26489.876	3003.256	26597.219	1038.980	23.988	1.232	15.692	209.317
44.457	205.500	26407.370	2753.405	26105.567	1202.691	29.711	1.126	14.893	266.998
46.177	210.800	26825.635	2502.274	25231.235	1187.530	29.134	0.921	14.999	194.699
47.896	216.100	26873.549	2247.629	24323.266	1126.991	17.282	1.315	14.537	122.383
49.615	221.100	27158.629	2029.716	23777.433	1094.704	11.694	1.193	14.074	96.751
51.331	226.400	27545.511	1856.165	23049.112	1074.256	10.438	0.861	14.342	83.362
53.065	231.700	28178.194	1714.525	22891.651	1055.119	9.743	1.400	13.254	74.927
54.778	236.700	29077.260	1592.406	22137.118	1037.243	7.858	0.846	13.509	64.721
56.501	241.900	29555.056	1483.469	22027.623	1025.042	6.741	0.798	13.365	48.119
58.220	246.900	30019.477	1407.984	21576.906	1002.926	4.746	0.831	13.194	31.566
59.941	252.200	28658.027	1318.836	21370.626	989.924	2.894	0.973	10.911	20.439
61.689	257.400	27445.301	1247.538	20981.744	959.773	1.771	1.195	11.887	16.994
63.427	262.700	26438.408	1189.203	20715.909	952.848	1.427	0.632	12.761	16.043
65.147	267.700	26286.781	1156.397	20602.669	946.886	1.526	0.884	11.002	13.196
66.863	272.900	26176.063	1156.933	20159.173	935.343	1.446	0.591	11.720	11.640
68.613	278.200	26584.419	1214.950	20151.149	928.416	1.443	0.608	12.331	11.061
70.336	283.500	27009.358	1410.705	19856.925	922.018	1.532	0.728	11.767	11.096
72.056	288.500	27528.445	1747.625	19849.920	904.978	1.140	0.410	11.365	11.398
73.777	293.800	27916.995	2295.603	19557.503	899.047	0.931	0.547	11.406	9.729
75.497	299.000	27677.512	2962.643	19579.805	897.801	1.057	0.719	11.598	10.330
77.218	304.000	27164.386	3588.023	19293.413	887.169	1.453	0.500	10.865	10.746
78.935	309.300	26168.090	3894.179	19349.721	876.559	1.205	0.692	11.414	11.223
80.652	314.200	25270.221	3666.457	19289.452	855.912	1.112	0.695	10.084	10.427
82.402	319.500	24399.825	3040.737	19061.011	841.061	1.332	0.712	10.915	9.685
84.121	324.700	24081.146	2402.791	19035.016	840.889	1.361	0.723	10.946	9.481
85.843	330.000	23659.799	1838.523	18820.674	812.339	0.742	0.867	10.366	8.762
87.560	335.000	23285.730	1436.920	18876.842	815.553	0.765	0.784	10.464	9.449
89.272	340.300	23288.073	1200.921	18738.066	799.417	1.042	1.024	10.993	9.114
90.992	345.200	23194.511	1048.997	18906.913	786.184	0.858	0.787	9.742	8.788
92.712	350.500	23543.324	953.703	18881.529	776.069	0.872	0.558	10.479	8.765
94.465	355.800	23261.518	895.195	18994.094	779.872	0.826	0.777	9.566	8.743
96.186	361.100	23750.113	868.133	19020.471	779.206	0.960	0.773	9.592	8.611
97.904	366.000	23727.723	833.702	18977.906	776.103	1.037	0.597	9.728	7.468
99.625	371.300	23998.347	819.455	19163.183	760.590	0.777	0.513	9.487	8.687
101.347	376.500	23977.421	812.937	18944.409	755.270	1.022	0.596	9.131	8.286
103.091	381.500	23854.157	790.853	19199.673	740.664	0.958	0.658	9.565	8.301
104.810	386.700	23691.806	787.525	19087.095	750.051	0.467	0.571	9.756	8.351
106.543	392.000	23503.204	778.278	19628.573	738.378	1.103	0.427	9.050	8.384
108.261	397.000	23476.063	770.223	20096.854	738.499	0.840	0.535	8.986	7.531
109.978	402.200	23178.081	769.400	21621.916	762.023	0.984	0.919	9.568	8.137
111.697	407.500	22633.814	775.746	23425.474	777.549	1.140	0.815	9.157	8.472
113.420	412.500	21734.723	760.511	25726.912	800.332	0.826	0.627	9.721	8.321
115.132	417.700	21283.929	764.755	27530.610	812.145	0.662	0.542	9.167	8.042
116.850	422.700	20696.651	752.604	28263.414	821.573	0.754	0.658	9.153	7.572
118.618	428.300	20363.823	753.773	29272.956	820.920	0.695	0.478	9.149	7.615
120.339	433.200	20087.301	748.344	29426.940	824.794	1.075	0.584	9.541	7.014
122.059	438.500	19958.727	750.630	30093.311	819.603	0.803	0.658	8.819	8.694
123.778	443.500	19872.960	744.845	29970.238	812.427	0.908	0.560	8.839	7.063
125.499	448.700	19642.532	748.903	30108.722	816.950	0.678	0.579	8.589	7.355
127.218	454.000	19571.717	742.314	29994.259	815.988	0.657	0.947	9.188	6.537
128.938	458.900	19734.260	744.210	30124.413	807.339	0.748	0.551	8.875	7.102
130.656	464.200	19869.152	750.643	29863.367	797.014	0.555	0.606	8.517	7.299
132.412	469.500	19743.226	746.669	29063.798	794.878	0.766	0.288	9.288	7.766
134.127	474.800	19813.239	749.611	28334.471	773.200	0.763	0.714	9.610	6.855
135.841	479.700	19914.328	745.399	26812.605	751.829	0.850	0.535	9.092	6.830
137.555	485.000	20005.750	746.283	25114.849	722.549	0.558	0.449	8.416	7.665
139.277	490.000	19884.614	742.494	22606.609	690.719	0.626	0.672	8.968	6.842
140.998	495.200	19808.093	733.203	20366.484	654.433	0.752	0.315	9.990	6.815
142.741	500.500	19849.779	730.537	17799.924	603.983	1.035	0.703	8.249	6.773
144.476	505.800	19734.451	734.089	16183.720	583.115	0.777	0.559	8.607	6.508
146.198	510.700	19815.964	735.065	15148.030	569.993	0.764	0.669	8.908	6.972
147.918	516.000	19786.976	738.858	14801.497	560.312	0.728	0.357	8.537	6.323
149.684	521.300	20095.211	747.503	14678.055	558.627	0.727	0.350	8.410	7.024
151.403	526.600	19985.932	730.118	14486.308	552.617	0.718	0.344	8.585	7.254
153.136	531.500	19741.443	736.379	14466.592	555.025	0.708	0.481	7.718	6.509
154.896	536.800	19447.690	737.047	14242.978	553.627	0.806	0.553	8.920	6.241
156.617	542.100	19093.349	730.168	14275.774	537.933	0.654	0.588	9.191	6.469
158.335	547.300	18712.173	737.280	14101.820	544.869	0.498	0.491	9.213	6.348
160.054	552.300	18520.629	729.651	14130.630	534.293	0.832	0.753	9.064	6.615
161.771	557.600	18274.765	726.180	13869.163	532.541	0.959	0.354	8.411	6.935
163.489	562.500	18193.290	720.005	13957.261	526.978	1.062	0.402	8.523	6.458
165.245	567.800	18189.736	723.643	13802.310	519.819	0.815	0.567	8.696	7.097
166.976	573.000	18108.567	717.444	13930.502	522.915	0.925	0.686	8.864	6.261
168.695	578.300	17995.964	717.170	13719.612	519.418	1.209	0.266	9.141	6.965
170.415	583.300	18023.551	704.915	13756.930	515.365	0.996	0.434	8.620	7.412
172.134	588.500	17903.153	713.935	13749.593	524.120	1.026	0.295	8.458	7.444
173.852	593.800	18068.039	703.363	13612.358	519.804	0.740	0.213	8.505	6.987
175.568	598.700	17964.810	704.948	13679.670	512.457	0.903	0.632	8.474	6.949
177.286	604.000	17928.945	702.965	13546.651	512.564	0.757	0.447	8.935	7.545
179.005	609.000	17824.735	697.862	13586.083	503.560	0.716	0.480	8.597	7.094
180.737	614.300	17765.867	686.873	13443.931	507.119	0.990	0.028	7.990	7.131
182.455	619.500	17705.878	691.706	13515.931	504.986	0.755	0.493	8.817	7.573
184.176	624.800	17706.770	690.970	13494.189	501.723	0.982	0.473	8.048	7.163
185.899	629.800	17802.179	697.932	13481.784	501.583	0.898	0.357	7.740	6.861
187.615	635.000	18005.312	688.013	13569.220	503.197	0.888	0.805	7.686	7.363
189.327	640.000	17912.018	698.221	13430.953	500.773	0.829	0.238	8.450	7.267
191.042	645.300	17969.676	686.264	13534.106	504.212	0.639	0.419	8.328	6.586
192.792	650.500	17918.246	689.262	13419.452	503.543	1.029	0.300	7.495	7.451
194.505	655.500	17691.626	681.275	13430.609	496.222	0.708	0.499	7.596	6.949
196.226	660.700	17715.533	676.922	13343.377	501.375	0.715	0.687	7.775	7.019
197.949	666.000	17691.614	681.067	13447.014	487.272	0.766	0.726	8.191	7.048
199.668	670.900	17678.380	685.795	13398.997	492.697	1.087	0.517	7.755	6.904
201.392	676.200	17515.418	683.769	13213.300	494.514	0.612	0.362	7.473	8.257
203.111	681.500	17399.631	686.949	13386.681	489.296	1.209	0.684	8.175	7.395
204.831	686.400	17217.461	680.671	13194.730	490.675	1.365	0.684	7.553	7.628
206.551	691.700	17145.589	684.814	13295.781	496.511	0.799	0.521	7.645	7.983
208.291	697.000	17090.670	685.222	13151.171	479.811	0.851	0.567	7.447	7.740
210.011	701.900	17040.259	684.772	13242.670	482.090	1.334	0.414	7.936	7.644
211.731	707.200	16937.909	677.956	13123.801	486.229	0.708	0.461	8.053	8.249
213.450	712.500	16977.175	681.290	13243.740	483.828	0.940	0.358	7.343	7.980
215.168	717.400	17002.508	681.728	13132.143	481.236	1.049	0.909	7.381	7.603
216.890	722.700	16748.148	666.280	12968.238	476.953	0.884	0.303	7.723	7.952
218.607	728.000	16644.486	660.546	13111.103	479.309	0.922	0.482	8.726	8.146
220.331	732.900	16832.426	680.810	12996.538	480.281	0.912	0.486	7.739	7.186
222.053	738.200	16842.143	670.915	13149.083	478.423	1.097	0.330	6.882	7.737
223.802	743.400	16936.291	677.002	13058.106	476.771	0.784	0.570	7.415	8.350
225.524	748.400	16782.639	671.930	13119.700	474.990	0.919	0.512	7.095	7.550
227.244	753.600	16719.848	672.058	13008.256	472.395	1.211	0.112	7.760	8.385
228.989	758.900	16729.706	674.501	13107.766	472.356	1.067	0.526	6.910	7.284
230.706	764.200	16743.258	678.911	13010.306	475.241	1.331	0.586	7.475	8.142
232.430	769.100	16672.316	676.672	13049.789	472.107	1.099	0.790	7.426	7.966
234.167	774.400	16630.706	673.995	13109.702	472.522	1.210	0.423	6.777	8.448
235.884	779.700	16512.499	670.351	12964.468	470.544	0.852	0.288	6.495	8.365
237.603	784.600	16391.821	660.153	13072.651	464.278	1.129	0.839	7.291	7.691
239.324	789.800	16479.957	675.582	13012.357	468.369	1.194	0.602	7.303	9.193
