Wed, Jul 26, 2017	1:58 PM
 Notes: 1E-09_15_s_HOAc
 waiting time: 25.000
 time(s)	 temp (K)	 MS1=1.839	 MS2=14.600	 MS3=17.577	 MS4=27.745	 MS5=43.737	 MS6=28.818	 MS7=25.803	 MS8=60.080
0.000	110.300	20706.637	775.304	3057.765	4185.985	3731.268	350.378	292.847	135.119
1.071	110.300	20965.989	802.955	3059.331	4192.264	3786.035	353.778	293.853	134.368
1.963	110.300	21049.235	792.651	3082.066	4216.794	3783.921	348.951	290.860	137.857
2.753	110.300	20690.691	767.000	3018.995	4184.520	3775.234	345.767	288.670	136.189
3.499	110.300	21121.259	795.542	3052.925	4239.593	3769.923	354.721	293.051	135.348
4.258	110.300	20776.700	803.401	3043.742	4194.824	3788.328	351.817	294.185	136.329
5.016	110.300	21026.653	793.160	3072.030	4216.642	3763.020	350.212	294.745	136.431
5.772	110.300	20682.820	794.230	3026.522	4184.342	3779.488	351.537	295.917	136.355
6.561	110.300	21173.313	798.472	3075.443	4199.715	3763.122	353.715	294.529	138.966
7.317	110.400	20871.345	798.255	3019.352	4233.314	3774.343	355.027	298.006	135.871
8.088	110.300	21008.516	809.858	3087.301	4189.054	3787.067	353.460	295.828	139.793
8.844	110.400	20934.441	806.470	3055.447	4268.950	3828.638	345.691	290.122	138.367
9.604	110.600	20966.575	815.284	3089.886	4229.034	3798.338	357.625	300.820	140.392
10.364	110.800	21494.564	855.467	3062.758	4297.467	3841.095	358.389	300.145	143.372
11.121	111.200	20934.148	1006.076	3107.717	4318.113	3863.129	352.301	296.261	142.379
11.909	111.600	21698.284	1417.412	3114.799	4446.433	3905.146	362.821	304.985	144.799
12.690	112.300	21334.798	1713.293	3093.809	4582.789	4000.593	363.687	310.233	146.098
13.443	113.100	21981.785	2142.740	3128.108	4833.506	4219.112	383.111	326.790	145.245
14.204	114.300	21522.088	2567.590	3090.052	4910.651	4460.621	385.951	331.783	146.467
14.974	115.800	22218.912	2753.376	3150.397	4971.340	4740.696	392.090	341.335	147.499
15.756	117.700	21733.246	2602.029	3108.176	5034.742	4893.979	407.437	360.567	147.231
16.522	119.900	22224.006	2792.783	3130.783	5198.520	4987.324	425.204	391.020	151.906
17.279	122.500	21716.140	3178.557	3104.966	5186.751	5030.603	416.824	378.462	148.047
18.054	125.400	22190.535	3384.149	3104.495	5213.307	4860.813	405.221	356.963	150.951
18.817	128.500	21829.877	3813.189	3088.689	5175.365	4693.392	396.293	348.913	152.581
19.574	131.700	21924.522	4394.009	3127.153	5119.439	4454.482	404.011	327.032	151.180
20.330	135.000	22049.250	4723.425	3091.758	5129.450	4329.206	397.528	331.923	150.721
21.088	137.800	21968.692	5095.991	3104.699	5138.735	4231.913	401.107	328.522	151.536
21.844	141.100	22001.590	5161.635	3082.512	5240.359	4207.726	395.911	325.809	150.416
22.600	144.300	21879.575	5344.340	3108.621	5178.753	4185.284	390.714	323.771	155.523
23.357	147.500	22292.312	5217.879	3093.911	5196.482	4209.942	389.746	324.243	155.141
24.114	150.500	21868.061	5029.393	3095.567	5038.537	4180.585	386.664	316.244	156.160
24.907	153.500	22290.936	4651.082	3088.307	4966.169	4145.827	389.339	318.104	156.147
25.665	156.400	21696.998	4236.638	3059.038	4886.999	4123.665	379.837	320.613	156.453
26.458	159.300	22173.099	4060.353	3089.479	4843.198	4139.764	382.397	322.740	154.084
27.213	162.100	21646.459	3767.962	3060.427	4818.171	4121.564	380.742	319.759	155.472
27.974	164.800	21975.773	3595.727	3076.296	4826.858	4125.168	382.601	318.129	158.529
28.748	167.500	21624.438	3379.551	3030.420	4756.107	4114.725	383.200	314.627	158.083
29.509	170.200	21980.855	3169.680	3090.090	4803.703	4098.715	375.188	315.072	162.159
30.265	172.800	21557.852	3092.191	3059.204	4763.443	4098.435	375.965	322.179	160.070
31.024	175.400	22077.919	2892.599	3084.486	4759.915	4099.122	383.569	316.461	161.509
31.783	177.900	21381.057	2642.111	3050.429	4732.710	4113.107	382.423	319.607	160.656
32.539	180.500	21980.587	2505.996	3112.519	4726.418	4074.057	376.156	321.950	161.904
33.298	182.600	21572.384	2474.652	3045.270	4744.822	4083.813	380.703	328.968	167.826
34.055	185.100	21836.309	2319.407	3063.929	4705.059	4060.582	380.041	325.414	169.393
34.824	187.600	21663.781	2089.667	3048.162	4702.231	4061.639	380.092	326.472	171.635
35.589	190.100	21719.503	2055.967	3057.599	4662.965	4050.049	388.154	322.549	173.672
36.345	192.500	21631.507	1982.197	3036.087	4718.878	4071.115	381.366	329.095	180.066
37.103	194.900	21510.727	1886.177	3053.218	4684.120	4038.930	383.671	318.078	182.078
37.860	197.300	21866.290	1769.753	3002.145	4691.813	4095.531	391.300	324.625	182.944
38.618	199.700	21206.568	1705.383	3072.679	4643.351	4060.442	376.411	324.574	187.058
39.377	202.100	21989.095	1666.002	2995.942	4691.405	4116.941	391.682	327.834	194.420
40.137	204.500	21491.775	1602.957	3042.417	4654.584	4065.218	382.410	322.218	189.160
40.894	206.800	21775.441	1501.651	3026.828	4662.570	4081.712	397.057	324.778	195.490
41.652	208.900	21646.676	1505.077	3026.204	4620.387	4068.771	380.449	319.543	193.936
42.410	211.200	22069.322	1499.091	3031.426	4672.466	4134.428	396.280	328.395	196.127
43.163	213.600	21551.726	1480.177	2993.892	4626.666	4109.031	378.105	327.529	191.580
43.949	215.900	22289.625	1360.327	3034.164	4662.659	4130.288	386.447	321.517	190.421
44.712	218.200	21824.031	1290.009	2981.091	4613.407	4127.130	380.818	330.980	188.740
45.498	220.600	22432.629	1263.441	3024.663	4652.050	4112.534	385.365	325.109	183.836
46.257	222.900	22185.593	1234.975	2994.605	4619.750	4125.525	381.901	328.993	181.416
47.017	225.200	22764.121	1207.401	3042.481	4630.079	4118.329	382.486	320.192	182.218
47.778	227.500	22505.635	1196.868	2989.459	4606.199	4161.582	375.176	329.108	181.021
48.538	229.900	23173.827	1156.149	3019.263	4649.999	4168.090	382.818	323.402	181.798
49.320	232.200	23174.668	1180.616	2995.585	4612.248	4201.791	385.671	324.625	182.142
50.092	234.500	23616.533	1144.559	3001.011	4612.822	4163.199	371.609	319.619	180.779
50.869	236.800	24143.937	1141.986	2985.575	4671.091	4236.128	386.715	329.808	185.071
51.631	239.100	23968.836	1117.252	2979.079	4593.755	4212.872	384.078	322.944	180.588
52.392	241.400	24969.628	1128.409	3007.303	4648.687	4259.551	384.193	323.861	179.238
53.150	243.800	24544.294	1095.256	3004.297	4596.863	4230.486	383.340	320.498	182.957
53.904	246.100	25477.838	1092.849	2977.079	4622.157	4277.293	380.372	335.349	184.728
54.680	248.400	25163.655	1081.998	2966.916	4608.007	4244.662	381.366	329.184	183.849
55.464	250.700	25904.280	1062.829	2962.229	4656.609	4294.283	380.716	332.483	182.410
56.225	253.000	25420.167	1061.861	2950.817	4614.528	4325.857	373.838	327.822	178.283
56.982	255.300	25812.284	1053.672	2964.470	4641.428	4330.556	390.345	335.311	183.989
57.784	257.600	25608.781	1071.541	2928.031	4652.687	4394.009	386.167	337.374	181.200
58.545	260.000	26043.655	1061.084	2993.535	4672.110	4386.966	379.149	330.611	181.174
59.302	262.300	25408.768	1031.345	2920.937	4661.921	4435.390	389.351	338.202	180.830
60.065	264.600	25844.036	1033.561	2965.107	4650.190	4410.057	385.327	337.119	182.575
60.824	266.900	25474.043	1030.746	2935.928	4695.965	4439.950	378.704	340.303	186.549
61.585	269.200	25501.107	1024.607	3007.520	4684.133	4450.292	391.134	344.939	181.633
62.343	271.500	25539.100	1016.876	2985.078	4689.304	4450.992	391.848	348.518	179.200
63.101	273.500	25092.624	1009.069	3047.436	4700.920	4484.960	392.905	339.030	182.155
63.859	275.800	25561.427	1010.177	3051.982	4728.978	4519.260	396.267	341.348	181.620
64.619	278.100	24813.874	1014.176	3139.355	4691.826	4501.288	391.911	337.157	184.664
65.377	280.400	25066.833	1000.064	3152.868	4724.558	4529.232	385.174	343.347	182.155
66.130	282.700	24660.311	1007.986	3286.078	4662.239	4549.369	391.695	349.958	185.479
66.880	285.100	25009.582	996.523	3360.867	4713.541	4565.671	395.338	341.157	182.741
67.662	287.400	24352.624	990.601	3412.169	4674.058	4535.040	391.835	351.792	181.849
68.419	289.700	24657.572	993.645	3480.411	4725.425	4603.766	389.415	346.735	183.645
69.206	292.000	24062.169	991.250	3428.345	4658.418	4565.582	395.529	351.957	185.224
69.966	294.300	24312.364	1002.892	3415.672	4706.511	4586.279	391.045	348.060	186.472
70.715	296.700	23417.055	999.109	3313.029	4672.912	4625.507	392.230	351.129	188.638
71.472	298.600	24002.448	983.048	3213.379	4710.688	4586.559	400.152	354.797	187.746
72.227	300.900	23342.623	978.412	3074.437	4668.862	4619.330	388.090	353.154	185.352
72.978	303.300	23654.946	992.359	3038.291	4719.375	4606.937	396.382	353.065	185.097
73.728	305.600	23442.439	988.601	2937.125	4643.797	4652.483	393.185	353.944	185.326
74.490	307.900	23740.306	974.706	2912.748	4710.841	4638.002	389.262	359.548	186.307
75.248	310.200	23148.240	974.056	2849.384	4660.787	4669.308	392.179	357.230	187.300
76.005	312.500	23607.096	984.691	2863.687	4724.278	4648.191	398.038	360.198	187.899
76.763	314.800	22858.001	986.971	2795.649	4660.048	4728.991	390.740	348.047	185.874
77.519	316.800	23513.190	980.386	2855.268	4714.866	4728.851	394.561	356.580	189.937
78.281	319.100	22947.106	966.886	2842.481	4692.488	4813.446	388.129	362.783	187.007
79.039	321.400	23300.491	962.211	2819.046	4708.714	4886.655	392.625	353.065	186.243
79.808	323.700	22800.000	1008.101	2817.632	4699.277	5096.450	389.186	358.173	188.141
80.567	326.000	23180.272	1011.565	2806.717	4688.209	5269.207	398.483	352.938	194.624
81.328	328.300	22901.267	1018.838	2812.843	4778.408	5515.721	392.077	354.950	191.185
82.084	330.600	22918.461	1023.767	2848.963	4778.001	5811.092	397.197	352.186	191.185
82.845	332.900	23168.083	1022.901	2823.007	4867.805	6195.045	386.613	355.141	193.223
83.618	335.200	22824.186	1013.628	2829.655	4880.440	6630.301	395.274	357.243	195.210
84.380	337.500	23526.945	996.918	2797.088	4946.720	7227.793	395.223	354.097	193.490
85.136	339.800	23235.013	988.538	2794.579	5002.493	7828.151	389.555	356.249	196.585
85.896	342.200	24113.994	1004.535	2782.823	5068.646	8633.502	394.892	355.714	192.994
86.651	344.100	24018.088	1015.959	2775.156	5146.109	9526.875	388.103	344.634	193.541
87.408	346.400	25384.200	1011.896	2754.561	5296.170	10581.886	396.891	348.595	192.802
88.170	348.700	25357.759	1032.440	2739.264	5382.167	11536.737	403.285	351.677	197.311
88.944	351.100	26534.772	1007.591	2734.577	5519.236	12612.534	405.947	361.306	195.006
89.701	353.400	26565.658	1022.480	2716.453	5551.574	13446.504	401.171	347.308	196.572
90.447	355.700	27143.294	1047.724	2765.960	5677.984	14038.647	410.991	349.448	196.076
91.196	358.000	27143.727	1037.879	2665.775	5662.025	14167.655	398.955	348.187	196.853
91.960	360.300	27702.730	1012.227	2705.245	5702.055	13797.355	402.916	355.129	193.337
92.716	362.600	26681.522	1006.980	2653.102	5586.434	12858.666	398.420	347.398	193.197
93.484	364.900	26332.250	1008.063	2676.079	5503.711	11363.471	397.299	351.792	194.063
94.252	367.200	24854.300	1021.563	2621.019	5335.704	9836.523	395.834	351.779	195.006
95.010	369.200	24439.792	1022.684	2629.667	5237.417	8348.027	400.852	339.934	195.923
95.767	371.500	22931.109	1014.520	2616.345	5133.526	7367.066	399.018	353.600	191.185
96.549	373.800	23071.248	996.804	2640.009	5149.370	6616.915	403.731	354.594	195.248
97.310	376.100	22269.832	1013.144	2592.349	5214.491	6251.773	393.058	349.270	195.159
98.058	378.400	22278.442	1002.624	2605.277	5257.388	5876.876	395.834	350.875	196.318
98.815	380.800	21834.908	1008.572	2568.940	5393.031	5644.729	399.732	345.882	196.229
99.574	383.100	21956.834	1006.229	2614.103	5511.276	5449.950	400.445	349.881	193.503
100.333	385.400	21745.893	1008.215	2561.005	5707.214	5305.302	405.438	342.927	199.795
101.091	387.700	21678.593	1011.960	2574.238	5890.389	5189.834	399.719	348.213	203.323
101.852	390.000	21988.191	1030.784	2585.828	6203.133	5134.532	407.119	350.225	196.496
102.610	392.300	21454.585	1027.116	2571.920	6450.131	5031.723	417.843	337.157	198.343
103.370	394.300	21788.636	1032.860	2549.007	6779.444	5010.517	411.424	346.366	198.088
104.129	396.600	21235.569	1009.871	2559.247	7103.536	4880.618	421.995	341.666	200.355
104.888	398.900	21693.915	1034.121	2539.773	7475.746	4862.889	415.920	337.208	199.922
105.645	401.200	21078.910	1037.598	2546.931	7794.679	4797.347	434.846	351.066	196.751
106.401	403.500	21655.540	1056.639	2528.731	8102.876	4761.367	431.089	345.869	199.387
107.161	405.800	21240.842	1016.609	2522.910	8265.915	4674.963	437.189	340.838	202.902
107.918	408.100	21415.102	1038.286	2527.024	8421.249	4680.923	433.712	346.379	205.068
108.672	410.400	21012.337	1033.357	2507.270	8330.451	4607.612	441.838	347.665	198.776
109.433	412.700	21478.860	1017.195	2520.669	8230.483	4591.628	437.381	346.009	202.992
110.192	414.700	21061.831	1056.257	2501.322	7879.300	4562.755	435.929	348.799	201.374
110.953	417.000	21500.665	1050.411	2558.980	7518.120	4562.882	423.727	347.550	203.807
111.708	419.300	20853.539	1044.578	2494.699	6949.833	4559.902	417.015	344.863	201.170
112.479	421.600	21446.943	1059.429	2527.992	6460.727	4492.870	407.310	347.436	198.165
113.236	423.900	21057.755	1047.189	2487.274	5910.895	4501.785	402.903	344.888	200.954
113.993	426.200	21206.364	1033.485	2513.460	5510.232	4433.798	395.771	345.844	206.354
114.748	428.500	20916.763	1041.228	2498.966	5125.451	4462.455	390.396	344.608	200.903
115.501	430.800	21424.603	1049.685	2501.857	4954.884	4388.482	396.140	350.403	207.258
116.252	433.100	20763.989	1066.077	2469.506	4818.464	4402.645	389.988	337.985	204.049
117.012	435.100	21317.935	1061.607	2498.571	4784.955	4355.838	391.835	339.259	207.258
117.772	437.400	20901.504	1059.849	2477.161	4714.497	4381.502	388.562	336.826	203.972
118.531	439.700	21019.266	1048.386	2487.758	4742.670	4326.264	388.880	340.698	206.520
119.289	442.000	20782.330	1042.617	2480.090	4677.268	4344.681	385.530	342.074	204.482
120.046	444.300	21304.180	1044.081	2511.167	4666.506	4269.116	390.943	343.424	210.506
120.807	446.600	20701.631	1060.142	2486.955	4685.967	4327.079	389.326	343.309	207.386
121.564	448.900	21042.713	1038.885	2497.412	4684.859	4282.553	393.771	343.564	206.876
122.324	451.200	20992.659	1057.607	2490.764	4703.136	4325.793	385.581	349.741	207.551
123.083	453.500	21124.545	1072.305	2488.535	4674.441	4294.589	384.703	342.290	204.482
123.843	455.800	21064.556	1077.464	2483.275	4716.534	4318.928	389.644	343.322	207.526
124.601	457.800	20804.453	1082.953	2493.311	4661.284	4316.546	393.261	341.004	209.793
125.359	460.100	21276.988	1060.995	2463.393	4696.551	4319.769	384.397	343.806	208.048
126.118	462.400	20911.452	1053.060	2487.936	4692.093	4283.342	385.263	336.915	210.468
126.877	464.700	21070.097	1038.070	2464.870	4680.834	4320.800	391.402	349.104	209.271
127.635	467.100	20752.119	1046.832	2492.865	4673.129	4293.774	386.498	339.832	208.392
128.397	469.400	21372.944	1051.137	2498.609	4695.456	4348.744	398.496	347.003	210.213
129.159	471.700	20825.264	1068.956	2469.405	4675.752	4309.605	390.167	337.017	208.443
129.956	474.000	21161.596	1043.483	2524.057	4707.708	4326.392	393.847	342.494	215.079
130.715	476.300	20792.684	1027.817	2478.435	4677.943	4334.110	390.854	337.310	215.410
131.489	478.600	21181.694	1071.248	2491.642	4710.472	4318.864	392.357	348.531	216.518
132.245	480.900	20876.490	1065.593	2472.436	4684.286	4362.092	391.618	340.443	211.194
133.005	483.200	21082.553	1064.944	2524.630	4724.253	4380.381	391.784	346.697	209.640
133.760	485.500	20771.605	1060.078	2485.402	4710.319	4421.087	390.829	347.894	218.670
134.521	487.800	21190.813	1078.839	2523.229	4763.417	4364.958	389.912	338.953	215.970
135.281	490.100	20562.333	1060.524	2507.792	4712.433	4460.417	393.847	339.093	210.876
136.039	492.100	21182.101	1079.323	2547.199	4754.807	4427.073	394.752	343.920	216.556
136.800	494.400	20827.149	1098.835	2524.235	4756.934	4525.742	399.821	342.379	215.321
137.560	496.700	21137.384	1068.217	2591.114	4814.516	4501.683	394.968	344.659	216.276
138.321	499.000	20857.869	1077.731	2583.918	4823.890	4554.234	390.574	341.144	212.124
139.079	501.400	20834.995	1075.871	2583.192	4762.322	4435.721	386.269	342.876	212.468
139.835	503.700	20865.435	1052.615	2571.347	4767.684	4434.944	392.383	341.526	209.462
140.596	506.000	20786.571	1044.107	2584.975	4731.856	4293.035	389.224	344.175	213.792
141.358	508.300	20822.131	1046.896	2541.557	4754.667	4279.458	389.237	339.603	210.099
142.120	510.600	20636.421	1054.589	2538.602	4664.188	4139.064	383.900	333.528	213.410
142.879	512.900	21084.069	1061.556	2505.067	4714.802	4148.234	387.963	344.774	212.761
143.639	515.200	20516.876	1066.217	2510.327	4710.472	4114.750	394.561	348.531	211.933
144.397	517.200	21027.786	1070.344	2510.773	4724.023	4132.645	388.065	336.852	214.811
145.147	519.500	20337.866	1040.655	2509.295	4707.492	4080.693	377.468	338.737	213.741
145.904	521.800	21067.983	1077.260	2499.615	4743.943	4117.348	387.441	339.221	214.493
146.665	524.100	20591.538	1068.905	2503.411	4715.732	4064.785	388.154	335.565	211.640
147.419	526.400	20781.769	1065.784	2495.603	4791.246	4082.259	384.282	344.863	210.353
148.175	528.700	20518.660	1068.599	2478.600	4768.690	4083.520	391.835	344.646	212.748
148.931	531.000	20996.506	1087.423	2516.504	4864.405	4071.612	385.913	343.628	213.397
149.685	533.300	20433.478	1066.803	2473.175	4794.583	4058.162	389.211	339.182	215.677
150.440	535.300	20971.899	1058.894	2494.368	4873.524	4063.957	392.357	341.093	214.900
151.201	537.600	20509.680	1056.830	2483.020	4843.530	4054.252	385.874	345.118	211.041
151.958	539.900	20786.864	1070.611	2524.846	4975.275	4053.679	396.102	346.149	212.391
152.712	542.200	20624.410	1083.539	2482.396	4923.693	4072.427	392.434	342.774	216.530
153.467	544.500	20980.560	1070.650	2514.950	5009.486	4052.367	396.063	344.315	214.314
154.225	546.800	20410.272	1059.645	2493.527	5011.511	4052.036	384.919	338.176	211.831
154.985	549.100	21087.533	1068.433	2484.676	5105.888	4035.224	398.216	343.933	215.805
155.747	551.400	20506.598	1068.421	2492.305	5126.330	4062.505	396.802	344.417	214.849
156.502	553.400	20799.944	1075.591	2499.450	5236.054	4050.826	396.662	346.633	217.995
157.258	555.700	20451.666	1062.511	2480.600	5277.728	4056.302	386.524	334.113	216.862
158.015	558.000	15317.463	997.275	1155.232	3968.306	2975.895	362.528	320.473	182.155
158.773	560.300	18865.812	953.398	2256.859	4862.711	3380.748	384.983	334.801	195.286
159.534	562.600	20283.557	1021.869	2467.074	5374.028	3734.758	401.324	346.608	209.296
160.290	564.900	20300.331	1054.309	2455.687	5554.937	3958.436	402.470	342.469	215.308
161.041	567.200	20572.318	1068.739	2493.999	5770.743	4005.051	410.634	343.003	216.760
161.796	569.500	20491.047	1074.674	2479.683	5912.207	4060.556	403.387	340.061	219.511
162.554	571.800	20798.199	1068.675	2500.762	6094.287	4019.558	401.629	340.303	217.893
163.309	573.800	20409.865	1078.075	2471.659	6214.889	4068.657	414.277	347.359	218.581
164.065	576.100	20925.003	1077.018	2518.669	6354.900	4036.064	412.786	344.990	215.461
164.855	578.400	20946.706	1074.560	2491.923	6551.373	4033.963	423.154	352.658	216.964
165.617	580.700	20546.336	1082.596	2527.152	6599.580	4060.951	423.791	345.016	215.919
166.377	583.000	20921.373	1088.531	2498.431	6795.505	4058.289	417.881	352.250	221.701
167.133	585.400	20570.879	1094.479	2517.714	6841.560	4048.189	417.957	340.367	219.103
167.891	587.700	20827.506	1087.538	2521.382	7029.805	4070.911	423.154	346.926	218.097
168.644	590.000	20362.256	1081.348	2524.617	7045.229	4049.157	418.301	341.819	222.466
169.391	592.400	20969.683	1084.991	2504.328	7101.944	4085.609	428.287	343.042	225.191
170.152	594.800	20470.337	1070.497	2520.783	6988.679	4024.436	425.115	338.660	222.198
170.903	596.800	20695.543	1067.325	2509.053	6941.350	4044.458	424.109	340.023	222.784
171.657	599.200	20468.440	1063.632	2496.266	6718.271	4010.082	426.860	343.271	221.167
172.414	601.500	20840.599	1064.791	2491.884	6679.056	4032.613	419.600	341.373	224.223
173.165	603.900	20319.602	1074.496	2458.872	6422.595	4018.526	409.016	337.629	222.555
173.914	606.200	20891.532	1063.441	2480.880	6359.485	4020.628	413.270	343.793	221.154
174.662	608.600	20463.065	1070.522	2479.696	6150.429	4008.261	412.608	337.145	223.816
175.406	610.600	20623.430	1069.440	2480.001	6105.941	4023.646	412.417	342.736	222.160
