Wed, Jul 26, 2017	12:32 PM
 Notes: background
 waiting time: 25.000
 time(s)	 temp (K)	 MS1=1.839	 MS2=14.600	 MS3=17.577	 MS4=27.745	 MS5=43.737	 MS6=28.818	 MS7=25.803	 MS8=60.080
0.000	109.900	20390.722	967.866	2655.127	4466.034	3962.588	391.033	306.883	149.766
1.037	109.900	20918.966	993.288	2671.328	4521.476	3988.035	391.759	315.047	151.154
1.782	109.900	20537.560	994.269	2673.570	4507.364	3987.156	387.097	313.251	153.332
2.553	109.900	21185.897	1013.437	2684.931	4551.674	3995.104	393.261	321.402	153.663
3.314	109.900	20650.533	1006.916	2674.614	4528.137	3989.958	390.065	313.748	154.962
4.095	109.900	21167.607	1007.171	2700.558	4549.407	3981.960	398.611	313.073	154.899
4.852	109.900	20754.271	994.842	2677.493	4524.049	4016.794	389.173	313.671	155.128
5.619	110.000	21225.736	983.991	2721.306	4540.657	3996.747	391.147	318.129	152.683
6.404	110.000	20812.324	1006.725	2680.944	4485.610	4019.099	393.949	315.238	156.822
7.176	110.000	21198.047	998.892	2718.504	4544.465	3825.633	395.567	316.843	153.918
7.936	110.000	20794.913	998.026	2654.975	4546.758	4000.389	393.453	320.409	155.752
8.686	110.000	20985.680	991.671	2708.187	4531.346	3957.340	398.140	312.984	159.509
9.440	110.000	20836.867	991.773	2669.430	4551.317	4011.572	383.862	313.506	155.077
10.199	110.000	21187.527	990.563	2712.607	4552.400	3986.443	389.950	315.327	157.663
10.953	110.000	20784.940	987.238	2654.567	4600.314	3994.480	383.722	313.620	157.688
11.727	110.000	20817.024	982.169	2684.281	4521.106	3962.651	380.461	312.296	158.045
12.486	110.000	21231.646	1008.623	2657.331	4574.192	4004.682	391.338	311.583	158.249
13.251	110.000	20903.198	1004.496	2710.862	4510.701	3967.759	386.231	313.035	157.879
14.039	110.000	21263.869	994.358	2690.586	4570.995	4013.865	392.714	315.989	158.554
14.798	110.000	20790.646	1003.121	2665.049	4508.676	3977.527	383.480	312.742	163.076
15.557	110.000	21276.937	994.435	2670.055	4579.121	3966.345	394.128	317.365	159.446
16.344	110.000	20958.704	979.457	2658.592	4542.325	3965.874	389.504	319.785	158.299
17.101	110.000	21318.305	985.748	2678.384	4555.367	3955.455	391.211	317.480	162.694
17.857	110.000	20674.108	976.311	2643.244	4538.988	3989.220	397.732	315.951	160.172
18.615	110.000	21366.449	1008.177	2674.512	4571.199	3941.891	400.152	313.837	162.515
19.402	110.000	20943.038	1003.809	2651.357	4539.205	4000.555	383.531	322.816	161.484
20.158	110.000	21431.022	1007.362	2670.322	4545.382	3982.597	393.911	311.035	164.731
20.914	110.000	20989.055	1014.813	2633.119	4577.351	4004.669	395.834	316.919	166.820
21.669	110.000	21191.271	1027.397	2696.470	4595.220	3959.047	397.464	313.035	165.304
22.424	110.000	21005.752	1008.457	2647.282	4577.109	4019.481	384.741	313.710	169.941
23.185	110.000	21354.655	1008.139	2680.664	4562.920	3969.682	389.199	315.314	166.196
23.940	110.000	20887.660	1030.504	2653.166	4594.672	4011.330	388.307	314.487	169.253
24.728	110.000	21065.282	996.243	2673.532	4538.644	3954.398	381.047	316.957	170.628
25.509	110.000	21430.424	1007.897	2653.867	4624.730	4007.344	394.115	321.441	170.004
26.266	110.000	20954.361	1023.270	2663.725	4549.037	3951.685	387.122	311.977	167.865
27.025	110.000	21460.202	1005.477	2637.029	4583.222	3983.577	385.594	316.983	169.877
27.783	110.000	20921.972	1014.494	2648.594	4585.642	3963.110	389.390	314.754	168.922
28.569	110.200	21561.787	1016.749	2679.314	4624.208	3997.880	388.664	320.702	173.150
29.322	110.300	21154.807	1046.934	2628.050	4605.498	4013.890	392.637	319.721	170.412
30.082	110.600	21750.172	1107.725	2680.626	4673.383	4101.237	400.534	327.592	171.367
30.837	111.000	21165.684	1348.024	2671.812	4712.688	4130.441	399.642	318.282	174.220
31.596	111.500	21931.144	1758.316	2688.561	4850.012	4305.058	397.770	324.676	180.117
32.358	112.200	21594.813	1942.612	2683.542	5003.283	4619.814	412.073	339.654	178.194
33.112	113.100	22020.898	2316.911	2730.272	5333.806	5205.079	428.567	359.828	179.174
33.870	114.300	21801.131	2889.185	2649.409	5399.437	5861.987	437.228	363.624	172.144
34.652	115.900	22317.925	2880.919	2728.617	5565.291	6148.659	461.045	385.696	178.359
35.427	117.800	21891.712	2709.206	2672.500	5704.756	5937.794	476.762	404.368	177.761
36.186	120.100	22443.888	2936.157	2706.048	5711.913	5454.331	464.407	382.639	180.868
36.938	122.700	21720.726	3282.716	2679.607	5617.180	5185.019	447.251	363.203	181.352
37.701	125.600	22142.952	3766.981	2692.114	5570.730	4844.383	445.328	356.912	183.072
38.462	128.200	22143.461	4105.605	2671.850	5587.249	4641.122	444.653	354.186	183.097
39.215	131.500	21963.928	4699.149	2669.163	5502.781	4494.920	447.595	347.652	183.632
39.975	134.700	22382.410	5039.009	2678.537	5519.236	4476.924	446.997	347.423	183.645
40.735	138.000	22043.926	5349.077	2701.310	5416.542	4412.184	443.698	344.112	183.148
41.491	141.300	22505.673	5552.186	2650.937	5431.533	4423.711	442.004	345.500	187.313
42.252	144.600	22005.360	5542.455	2695.833	5316.498	4354.042	440.909	341.208	187.759
43.010	147.700	22524.230	5537.475	2677.353	5393.451	4430.894	436.336	348.607	190.357
43.770	150.800	22002.137	5406.264	2724.847	5300.017	4400.339	444.335	339.947	212.608
44.527	153.800	22439.392	5251.504	2720.784	5341.678	4415.878	470.992	346.366	237.597
45.288	156.700	21994.177	5253.516	2774.392	5349.052	4445.719	523.275	359.752	306.297
46.050	159.200	22233.724	5430.361	2944.321	5472.506	4556.093	615.971	366.388	418.390
46.819	162.000	21906.767	5510.958	3109.016	5473.054	4648.878	743.909	379.162	568.286
47.577	164.800	22406.367	5613.881	3437.247	5606.507	4790.877	855.747	394.306	695.217
48.333	167.500	21658.916	5658.484	3628.523	5619.561	4808.886	850.984	391.988	658.434
49.086	170.200	22320.905	5023.699	3707.604	5585.186	4690.616	696.223	377.290	496.516
49.846	172.800	21857.018	4350.514	3738.031	5457.681	4672.874	604.126	370.769	438.947
50.600	175.400	22231.954	4044.088	3852.698	5537.997	4648.140	584.053	369.572	442.730
51.358	177.900	21833.163	3719.181	3922.022	5442.232	4673.765	584.716	363.917	439.877
52.119	180.500	22351.524	3570.292	4024.894	5512.486	4640.320	581.634	368.782	465.197
52.875	183.000	21889.343	3436.865	4022.780	5441.251	4658.342	576.373	368.069	474.456
53.635	185.100	22358.236	3268.005	4145.139	5520.803	4659.488	573.979	366.999	506.488
54.392	187.600	21669.869	3140.998	4115.145	5420.707	4653.744	584.372	365.292	518.473
55.150	190.000	22387.491	3054.568	4225.111	5499.495	4639.046	588.282	366.553	551.805
55.907	192.500	21898.819	2963.961	4161.480	5452.880	4713.414	591.708	375.634	573.329
56.665	194.900	22138.392	2922.873	4235.020	5480.887	4664.914	611.475	373.329	596.319
57.423	197.300	21718.293	2777.614	4149.329	5430.909	4703.047	605.642	368.438	595.516
58.185	199.700	22417.741	2730.387	4213.088	5492.974	4655.718	605.412	370.208	587.531
58.940	202.100	21750.325	2646.161	4126.302	5467.972	4728.978	608.571	372.667	560.886
59.692	204.100	22206.914	2528.209	4132.861	5445.938	4703.823	591.224	367.088	563.624
60.450	206.500	21933.857	2461.495	4096.741	5484.466	4737.333	591.721	376.577	536.827
61.204	208.800	21966.501	2370.404	4083.355	5405.029	4760.946	583.200	370.616	515.226
61.957	211.200	22127.197	2299.156	3997.664	5444.524	4815.267	576.119	366.502	507.877
62.713	213.500	22247.683	2258.336	4038.892	5403.997	4772.639	566.057	374.042	486.263
63.472	215.900	22378.334	2210.014	3935.459	5474.506	4836.283	560.338	376.335	465.566
64.228	218.200	22564.655	2148.548	3965.670	5341.678	4806.123	556.581	366.158	449.837
64.988	220.600	23301.217	2056.884	3906.025	5449.453	4837.149	550.837	369.648	427.599
65.749	222.900	22984.742	1980.236	3908.954	5344.543	4852.050	539.259	374.195	412.506
66.505	224.900	24100.900	1931.965	3832.472	5379.670	4885.420	530.204	381.824	399.146
67.263	227.300	24076.115	1883.337	3845.234	5345.142	4842.116	534.751	362.070	392.090
68.019	229.600	25106.965	1867.671	3771.235	5376.346	4909.797	520.690	367.075	381.378
68.775	231.900	25213.990	1842.402	3751.175	5317.975	4891.011	525.033	367.992	373.074
69.530	234.200	26183.106	1807.912	3730.300	5397.973	4974.855	516.194	368.591	370.374
70.283	236.500	25782.698	1789.291	3727.842	5328.699	4960.692	521.670	365.789	365.037
71.036	238.800	26782.764	1726.857	3681.265	5390.802	4998.532	514.729	371.775	358.134
71.785	240.800	26291.188	1687.985	3674.451	5347.906	4953.114	513.888	377.647	347.805
72.540	243.100	26774.523	1649.559	3685.863	5392.636	5011.141	509.443	375.863	335.387
73.299	245.400	26497.187	1607.402	3606.897	5317.809	4936.213	505.037	369.533	332.127
74.057	247.700	27076.670	1596.932	3607.190	5356.567	5006.492	503.661	366.426	324.918
74.814	250.100	26133.880	1563.550	3522.390	5287.102	4953.802	497.853	370.323	315.072
75.577	252.400	27027.342	1529.620	3546.768	5370.462	4996.405	500.923	374.704	312.092
76.335	254.700	26312.445	1485.386	3483.837	5298.756	4967.290	490.632	375.048	299.572
77.117	257.000	26803.906	1489.590	3494.077	5331.336	4948.389	497.216	369.304	289.892
77.877	259.300	26065.612	1465.212	3421.378	5281.651	4972.117	495.675	374.679	288.886
78.634	261.600	26222.882	1443.522	3445.360	5347.944	4937.907	481.538	375.838	286.861
79.390	263.900	25815.953	1436.262	3367.859	5260.113	5004.480	483.665	372.055	279.423
80.146	265.900	26191.983	1439.179	3374.049	5355.751	4950.860	483.576	372.208	277.373
80.926	268.600	25419.823	1389.596	3325.842	5309.836	4983.439	476.864	381.060	277.360
81.684	270.500	25865.943	1378.095	3331.993	5369.711	4942.594	483.219	381.213	276.086
82.446	272.800	25351.340	1406.102	3280.716	5370.882	5002.379	481.385	386.549	276.748
83.225	275.100	25081.594	1396.945	3318.378	5305.442	4948.580	484.556	384.677	271.870
83.981	277.400	25391.332	1408.598	3235.833	5370.003	5033.532	488.798	374.921	269.667
84.739	279.800	24761.464	1348.635	3254.174	5270.888	4993.285	480.264	376.233	267.909
85.492	282.100	24912.696	1375.369	3190.491	5342.989	5006.938	484.760	379.735	263.936
86.249	284.400	24435.780	1367.625	3218.919	5275.423	4976.957	473.960	387.122	259.796
87.010	286.700	24813.645	1352.978	3191.574	5338.519	5032.513	478.519	385.811	260.586
87.768	289.000	24097.130	1377.725	3177.054	5271.602	4999.959	477.106	387.950	261.860
88.528	291.400	24582.542	1349.667	3174.545	5321.045	5039.913	465.961	382.053	253.339
89.284	293.700	23582.718	1327.849	3136.094	5244.881	4970.601	470.801	390.829	258.332
90.041	295.700	24112.160	1348.941	3118.925	5307.671	5009.893	472.724	390.727	252.498
90.796	298.000	23447.304	1349.552	3082.983	5277.320	5002.417	470.342	390.676	252.995
91.550	300.300	23545.744	1340.331	3082.665	5310.461	5010.594	471.654	393.503	252.460
92.307	302.600	22992.002	1321.519	3036.036	5268.532	4975.938	461.631	389.670	253.071
93.064	304.900	23297.740	1315.189	3045.754	5305.468	5029.711	467.337	389.071	250.104
93.817	307.200	22492.962	1300.491	2977.347	5231.800	4959.928	464.929	386.651	251.861
94.588	309.500	22964.682	1323.786	2967.107	5303.354	5019.331	462.892	387.390	254.205
95.339	311.800	22375.685	1309.725	2922.784	5235.570	5019.000	461.822	384.155	248.193
96.095	313.800	22569.075	1305.930	2925.408	5290.566	5003.894	478.124	388.014	252.587
96.866	316.100	22174.105	1321.558	2891.312	5265.998	5011.358	469.999	389.899	249.238
97.624	318.400	22654.702	1340.548	2922.682	5293.139	4972.461	472.418	390.943	255.135
98.385	320.700	21883.930	1344.623	2864.069	5255.579	5001.614	465.082	388.957	246.869
99.142	323.000	22444.258	1298.938	2879.060	5284.211	4942.148	473.998	387.543	248.410
99.903	325.300	21937.398	1303.039	2853.549	5241.722	4979.071	467.107	390.650	243.519
100.661	327.600	22064.317	1307.802	2889.185	5228.985	4935.729	466.509	388.562	253.415
101.418	329.900	21867.067	1302.937	2816.778	5230.336	4981.593	467.209	392.510	249.964
102.176	332.200	22177.111	1331.403	2850.428	5297.036	4909.861	473.208	384.906	252.524
102.934	334.500	21564.500	1321.125	2814.932	5266.800	4975.874	464.331	386.295	248.792
103.692	336.500	22078.671	1326.003	2839.016	5244.015	4944.912	466.611	380.882	248.333
104.490	339.100	22201.947	1333.708	2805.430	5278.721	4962.131	468.419	387.148	249.569
105.248	341.500	21704.703	1308.847	2836.698	5254.726	4905.403	459.580	388.090	251.314
106.007	343.800	22153.816	1303.625	2780.556	5310.142	4942.084	466.254	389.199	250.728
106.761	345.700	21427.634	1328.206	2791.688	5263.259	4895.736	464.675	377.506	247.340
107.519	348.100	22018.325	1306.185	2789.764	5332.826	4941.537	459.466	382.996	247.404
108.276	350.400	21612.479	1319.456	2758.930	5320.981	4902.932	463.783	378.793	251.568
109.035	352.700	21864.991	1335.529	2764.037	5365.418	4945.650	464.038	385.925	255.173
109.791	355.000	21632.487	1328.792	2752.803	5352.478	4917.439	458.166	384.040	248.423
110.553	357.300	21943.142	1302.568	2760.725	5435.838	4960.743	456.804	387.021	249.760
111.311	359.600	21534.965	1303.714	2727.127	5426.872	4919.095	458.994	384.435	250.651
112.070	361.900	21994.228	1299.676	2767.081	5490.185	5006.225	456.269	376.004	250.817
112.823	364.200	21383.617	1298.594	2714.518	5491.955	4952.936	460.433	382.779	249.047
113.582	366.200	21898.259	1287.373	2730.247	5590.166	4986.254	459.338	382.741	251.390
114.342	368.500	21496.704	1290.786	2710.022	5622.414	5086.363	456.638	384.422	248.079
115.099	370.900	21948.708	1286.940	2697.018	5701.890	5179.161	461.019	382.410	251.938
115.855	373.200	21659.323	1310.897	2642.646	5709.060	5310.715	467.171	373.533	250.588
116.617	375.500	22162.973	1309.674	2707.805	5868.737	5462.738	461.656	385.034	253.059
117.377	377.800	21651.630	1305.612	2682.333	5875.220	5786.676	467.426	371.457	248.321
118.136	380.100	22465.235	1272.484	2663.750	6007.463	6076.341	458.994	381.748	249.174
118.897	382.400	22063.183	1293.767	2642.391	6035.063	6545.119	462.191	379.875	247.748
119.654	384.700	22747.003	1299.040	2668.208	6135.859	6928.830	466.178	386.422	248.181
120.410	386.700	22565.089	1301.205	2631.603	6134.929	7505.804	477.513	381.442	246.321
121.171	389.000	23428.938	1310.630	2635.310	6221.231	8150.421	467.171	372.552	251.810
121.931	391.300	23298.746	1295.524	2616.905	6278.087	9075.571	472.317	381.760	249.352
122.685	393.600	24337.786	1291.245	2658.439	6421.563	9882.617	468.292	375.507	255.033
123.443	395.900	24055.482	1302.122	2604.933	6561.536	10915.657	474.176	381.289	250.651
124.196	398.200	25082.409	1331.390	2649.625	6689.436	11822.543	478.634	378.245	251.454
124.953	400.500	25370.979	1350.507	2636.940	7007.032	13314.975	477.793	383.391	253.810
125.709	402.800	26118.876	1319.876	2633.055	7287.552	14972.624	491.345	374.603	253.110
126.464	405.100	27291.445	1305.739	2619.822	7876.002	17983.164	492.466	377.990	254.065
127.224	407.100	28859.977	1330.906	2642.964	8575.653	21981.823	507.979	376.067	266.266
127.983	409.400	31880.183	1326.652	2632.125	9782.941	28589.289	523.937	382.754	266.585
128.742	411.700	35066.652	1340.675	2697.362	11382.168	38324.954	555.053	376.972	266.980
129.500	414.000	41941.189	1337.567	2658.719	14017.454	52261.215	584.754	387.925	272.252
130.255	416.300	47062.400	1375.929	2689.796	16484.784	60544.670	620.505	382.792	274.379
131.013	418.600	50388.970	1358.863	2678.690	18413.032	60632.246	636.833	380.156	267.731
131.774	420.900	46814.880	1333.504	2655.879	18269.301	48864.773	628.720	385.352	256.790
132.531	423.200	39036.998	1333.925	2563.196	15173.605	26298.231	575.469	379.544	243.825
133.293	425.500	28046.551	1267.886	2536.526	11241.876	14226.077	527.351	374.361	243.939
134.049	427.500	25857.142	1312.234	2604.997	9160.574	12117.086	507.698	391.071	249.836
134.809	429.800	24507.461	1326.792	2566.711	7797.685	11373.112	486.518	380.907	256.510
135.565	432.100	25062.999	1350.800	2622.650	7198.766	11158.070	487.944	380.742	259.962
136.323	434.400	24248.885	1344.305	2618.803	6844.910	10888.376	487.791	379.022	261.516
137.082	436.700	24698.584	1324.869	2648.059	6773.738	10884.376	478.188	384.129	264.763
137.841	439.000	24142.281	1347.374	2619.886	6694.938	10925.350	483.627	384.766	267.260
138.623	441.300	24566.443	1344.432	2673.888	6745.005	10932.062	490.708	385.556	269.196
139.374	443.600	23946.344	1342.000	2627.515	6672.879	10858.611	478.379	377.978	270.508
140.128	445.900	24232.939	1353.297	2678.613	6623.550	10598.558	484.811	387.135	272.418
140.885	448.200	23912.528	1381.992	2636.036	6496.237	10530.800	484.251	384.588	268.941
141.642	450.200	24284.815	1420.596	2703.857	6568.172	10479.969	478.277	387.836	278.850
142.402	452.500	23681.527	1376.783	2677.072	6492.365	10727.463	490.937	382.168	280.480
143.160	454.800	24373.970	1388.997	2744.155	6611.807	10840.054	478.838	387.925	277.309
143.918	457.100	23645.891	1368.695	2696.712	6610.903	11317.390	481.283	379.022	274.762
144.674	459.400	24578.848	1412.139	2743.608	6743.719	11431.318	492.746	384.919	284.518
145.436	461.700	24168.365	1411.668	2738.768	6751.895	11712.882	482.697	380.742	277.907
146.192	464.000	24456.005	1426.060	2782.123	6795.518	11670.954	480.200	382.716	277.347
146.952	466.400	24382.198	1402.307	2744.792	6833.192	11821.193	492.695	388.804	275.411
147.710	468.700	24494.559	1411.834	2784.262	6813.642	11870.458	484.263	382.219	275.526
148.468	471.000	24319.356	1378.540	2732.731	6878.534	11552.747	488.326	391.657	277.080
149.224	472.900	23925.023	1391.723	2748.982	6562.810	10057.233	485.359	389.453	283.664
149.993	475.300	23470.051	1382.068	2686.930	6258.396	8503.208	479.538	384.359	274.825
150.752	477.600	22322.243	1386.335	2731.088	5882.391	7264.487	471.514	387.173	278.111
151.510	479.900	22295.585	1374.083	2758.993	5833.470	6989.583	473.463	384.613	280.467
152.268	482.200	21616.682	1383.660	2804.360	5770.858	7316.770	469.935	386.855	277.984
153.025	484.500	22463.184	1382.960	2900.597	6133.426	8656.746	478.239	386.766	270.164
153.806	486.800	23211.412	1363.537	2945.417	6725.811	10355.215	484.251	385.734	254.765
154.565	489.100	23342.763	1360.544	2809.621	6113.481	7576.211	460.408	382.907	250.359
155.327	491.500	21974.945	1333.262	2687.020	5659.681	6119.645	459.224	390.077	243.443
156.084	493.800	22058.611	1333.695	2664.094	5474.162	5330.393	455.925	385.989	246.296
156.843	496.100	21290.386	1339.771	2573.016	5352.300	4986.050	453.619	384.881	249.582
157.599	498.400	21538.238	1357.016	2608.321	5401.768	4867.627	451.620	394.420	249.709
158.355	500.400	21320.521	1343.553	2599.355	5340.531	4860.558	455.046	390.867	247.404
159.111	502.700	21750.962	1348.584	2616.230	5359.012	4771.913	448.767	387.186	249.110
159.862	505.000	20988.889	1355.806	2579.384	5325.744	4809.498	461.121	385.925	246.283
160.620	507.300	21655.197	1343.477	2613.033	5340.964	4740.135	457.682	399.299	253.097
161.382	509.600	21276.440	1359.092	2552.688	5301.723	4761.672	450.384	389.326	246.690
162.140	511.900	21667.755	1375.012	2587.828	5387.975	4678.121	457.147	394.115	249.671
162.901	514.200	21156.208	1353.297	2564.011	5308.321	4736.556	452.524	384.639	248.270
163.656	516.500	21382.802	1331.632	2602.615	5398.941	4681.318	448.767	386.435	251.314
164.414	518.800	21103.390	1318.896	2561.616	5371.226	4713.401	451.136	388.447	245.888
165.174	520.800	21582.115	1368.466	2597.215	5453.707	4679.102	460.459	385.059	253.033
165.931	523.100	21129.640	1373.306	2558.356	5419.650	4670.123	454.065	388.511	248.932
166.689	525.400	21577.466	1347.209	2611.072	5445.110	4635.008	459.682	384.804	243.366
167.447	527.700	21010.911	1332.893	2557.770	5474.162	4671.447	454.587	393.160	249.607
168.203	530.000	21375.950	1335.580	2603.940	5478.747	4606.950	462.586	389.390	250.779
168.965	532.300	21165.888	1360.722	2592.260	5531.298	4648.713	458.256	382.232	243.952
169.741	534.600	21027.239	1346.330	2590.872	5548.250	4596.379	456.969	389.466	250.359
170.505	536.900	21280.134	1301.217	2565.590	5629.687	4626.450	459.860	391.644	240.208
171.260	539.200	20918.775	1319.214	2608.448	5633.457	4548.770	464.815	384.410	243.188
172.021	541.500	21324.520	1322.793	2572.646	5767.139	4600.505	458.854	394.128	247.467
172.778	543.900	20981.311	1326.397	2570.990	5746.442	4575.287	465.579	393.898	250.142
173.543	546.200	21350.923	1333.568	2585.650	5924.205	4620.769	456.447	399.553	244.283
174.304	548.100	20992.939	1344.967	2571.118	5950.442	4541.536	468.585	391.669	247.506
175.063	550.400	21320.228	1337.071	2597.240	6125.504	4598.162	475.042	396.713	245.964
175.820	552.800	20916.202	1347.196	2565.285	6156.568	4564.461	463.745	392.650	247.811
176.574	555.000	21305.441	1349.820	2612.537	6369.484	4601.015	469.693	396.089	246.639
177.332	557.400	20868.339	1327.391	2571.041	6387.544	4574.943	474.367	385.034	248.881
178.093	559.700	21307.262	1321.175	2606.678	6635.688	4561.315	475.399	392.115	250.218
178.849	562.000	20900.804	1333.976	2561.935	6780.489	4562.487	474.444	392.268	248.168
179.609	564.300	21418.528	1345.413	2603.468	7011.197	4557.100	474.444	396.866	250.728
180.369	566.600	20932.136	1362.238	2608.028	7227.322	4586.546	480.493	390.383	248.907
181.125	568.600	21146.032	1364.085	2602.131	7542.205	4541.001	487.129	398.840	254.663
181.885	570.900	21027.277	1338.408	2584.262	7728.233	4603.613	484.136	397.210	247.442
182.644	573.200	21441.683	1355.882	2593.025	8086.854	4539.307	484.544	391.733	246.780
183.399	575.500	21065.028	1356.914	2601.774	8324.312	4591.373	503.343	395.643	245.238
184.158	577.800	21471.091	1376.974	2610.359	8864.121	4534.900	504.947	393.631	251.416
184.932	580.100	21020.336	1359.512	2616.765	9140.298	4595.742	504.947	388.460	247.849
185.710	582.400	21287.292	1361.525	2618.981	9557.646	4555.508	507.113	390.892	252.562
186.467	584.700	21203.104	1324.907	2587.943	10059.195	4574.421	519.391	397.108	253.020
187.229	587.000	21098.079	1341.032	2625.592	10384.904	4538.504	518.384	399.974	256.103
187.986	589.300	21328.901	1342.203	2612.180	10957.955	4571.415	529.936	394.994	251.250
188.753	591.700	20926.328	1338.790	2617.899	11188.472	4543.077	529.516	398.356	243.748
189.511	594.000	21402.365	1324.500	2615.530	11629.229	4552.642	538.024	390.752	251.072
190.270	596.400	20909.911	1325.875	2636.825	11661.249	4519.845	540.775	380.436	248.346
191.028	598.400	21279.573	1301.791	2617.058	11645.035	4526.570	525.555	381.557	253.950
191.790	600.800	20881.534	1309.993	2597.622	11307.583	4513.515	529.669	385.632	252.995
192.551	603.200	21380.127	1310.082	2621.631	11013.893	4534.747	518.805	383.633	251.110
193.312	605.500	20817.699	1292.353	2610.754	10442.766	4475.204	511.354	384.117	250.970
194.071	607.900	21289.278	1310.795	2639.054	10014.948	4484.209	511.621	380.168	250.995
194.831	610.200	20916.584	1306.554	2585.421	9474.146	4476.491	505.979	380.792	252.142
195.588	612.500	21214.235	1310.923	2611.263	9170.229	4504.434	508.883	380.117	257.937
196.346	614.800	20819.100	1305.000	2606.105	8770.750	4478.821	494.695	376.322	254.128
197.108	617.100	21289.762	1275.745	2601.532	8733.419	4470.428	491.549	384.932	252.842
197.865	619.400	20822.984	1264.855	2578.174	8539.138	4466.072	495.471	379.570	252.129
198.621	621.400	21286.578	1294.518	2600.463	8596.617	4440.663	499.369	379.213	256.612
199.374	623.700	20631.772	1317.138	2598.769	8410.589	4481.802	490.224	380.117	256.561
200.128	626.000	21319.438	1282.317	2628.852	8421.580	4428.512	499.152	378.169	255.619
200.888	628.300	20812.680	1266.816	2609.213	8196.018	4487.342	492.835	374.526	254.205
201.648	630.600	21092.768	1289.271	2613.645	8178.543	4429.417	496.159	380.958	257.134
202.404	632.900	20802.046	1275.159	2614.575	7927.215	4460.366	481.563	373.278	254.256
