Wed, Oct 18, 2017	3:00 PM
 Notes: GUA_1.56E-9_30 sec_0.025L_101817
 waiting time: 50.000
 time(s)	 temp (K)	 MS1=1.971	 MS2=14.708	 MS3=27.883	 MS4=125.586	 MS5=109.505	 MS6=125.586	 MS7=109.505	 MS8=125.586
0.000	100.100	5187.461	1008.990	16421.204	71.552
0.922	100.100	5191.618	999.907	16550.390	75.291
1.786	100.100	5303.311	1037.386	16696.859	73.544
2.684	100.200	5318.158	1044.963	16712.181	75.400
3.561	100.100	5227.967	1007.469	16404.710	74.681
4.435	100.200	5201.026	999.479	16454.917	74.388
5.335	100.200	5254.680	1023.794	16610.225	77.620
6.215	100.200	5279.267	1020.391	16591.197	78.453
7.108	100.200	5250.344	1017.907	16368.398	78.460
7.974	100.200	5190.410	1031.902	16358.082	79.264
8.839	100.200	5210.150	1033.268	16864.445	78.785
9.759	100.300	5289.240	1151.579	17841.331	81.358
10.669	100.500	5303.005	1220.651	20619.086	85.026
11.602	101.200	5338.537	1378.094	21054.724	83.708
12.513	102.300	5346.170	1613.033	21075.790	86.771
13.390	104.100	5350.560	1711.744	22206.124	84.450
14.306	106.500	5424.325	1795.176	22459.605	86.656
15.174	109.500	5408.608	1968.939	22037.812	86.175
16.061	113.000	5342.491	2021.579	21322.673	86.652
16.946	116.700	5343.425	2071.304	20842.013	86.260
17.847	121.000	5376.398	2005.695	20833.224	89.191
18.731	124.700	5376.646	1988.908	20733.651	88.766
19.591	127.900	5373.248	1936.922	20302.624	88.672
20.491	131.900	5325.838	1958.956	20367.109	90.452
21.356	134.800	5326.371	1853.836	20621.723	89.247
22.235	138.200	5415.365	1870.765	20612.897	91.234
23.092	141.500	5358.253	1821.388	20177.934	93.415
23.994	144.800	5309.981	1785.042	19923.765	95.200
24.930	148.400	5268.344	1701.126	19822.218	93.767
25.837	151.600	5267.004	1643.555	19911.029	95.950
26.747	154.700	5311.686	1564.012	19708.647	98.817
27.718	158.100	5282.475	1532.806	19739.928	99.143
28.668	161.500	5300.422	1480.518	19427.974	99.380
29.531	164.500	5229.019	1519.331	19355.580	99.477
30.395	167.400	5187.854	1422.744	19316.619	101.421
31.288	170.200	5292.514	1415.850	19344.244	103.649
32.153	173.100	5236.025	1369.392	19120.185	107.455
33.060	175.900	5243.876	1400.569	19066.004	117.683
33.922	178.600	5235.540	1399.555	19221.274	130.206
34.779	181.400	5312.175	1396.204	19378.505	158.333
35.685	184.100	5315.787	1368.503	19423.478	207.743
36.567	186.900	5255.243	1435.215	19293.833	302.189
37.521	189.600	5256.337	1436.373	19393.674	467.370
38.439	192.700	5246.074	1536.538	19687.912	727.385
39.343	195.400	5279.743	1623.301	20320.812	1031.245
40.254	198.000	5392.453	1750.366	20665.396	1238.672
41.109	200.700	5407.150	1819.151	20199.382	1060.309
41.973	203.400	5350.358	1608.477	19245.244	578.540
42.875	206.100	5407.705	1516.738	19454.631	535.878
43.742	208.700	5534.956	1459.533	19439.971	544.725
44.608	211.400	5581.550	1448.047	19142.575	570.178
45.475	214.100	5603.162	1467.509	19197.457	601.207
46.375	216.700	5693.396	1467.609	19495.108	621.736
47.265	219.400	5921.682	1486.978	19541.035	649.742
48.155	222.000	6044.734	1493.427	19407.850	679.483
49.041	224.700	6118.069	1542.794	19351.198	695.183
49.935	227.300	6249.085	1568.786	19461.942	679.538
50.801	230.000	6333.813	1502.118	19559.121	623.602
51.682	232.600	6355.116	1466.087	19399.775	536.236
52.547	235.300	6300.065	1488.543	19206.742	474.782
53.413	237.900	6222.960	1436.419	19201.023	415.276
54.279	240.600	6253.279	1406.653	19276.818	373.249
55.148	243.200	6250.294	1415.328	19101.513	344.937
56.016	245.800	6152.237	1407.076	18982.453	321.352
56.884	248.200	6132.436	1405.368	19350.536	305.636
57.751	250.800	6200.982	1382.566	19261.789	294.847
58.617	253.400	6181.311	1368.194	18969.360	284.398
59.531	256.400	6116.635	1373.757	19006.053	279.278
60.416	259.000	6124.723	1369.474	19056.464	266.989
61.277	261.400	6203.364	1356.078	19192.833	268.719
62.129	264.000	6243.742	1390.364	19064.119	262.061
63.013	266.600	6155.822	1387.735	18974.798	257.848
63.903	269.300	6190.930	1388.885	19068.296	257.602
64.766	271.900	6287.156	1360.277	19105.856	257.374
65.629	274.500	6322.343	1370.503	18841.524	257.094
66.496	277.200	6260.685	1382.469	18820.611	254.643
67.365	279.800	6328.813	1411.891	19078.677	258.636
68.233	282.500	6455.496	1397.015	19094.992	257.965
69.118	285.100	6602.564	1466.225	18988.655	256.168
69.983	287.800	6602.372	1507.701	18927.368	255.541
70.850	290.100	6700.917	1515.100	19231.552	257.452
71.719	292.700	6828.011	1487.672	19149.249	256.211
72.584	295.300	6883.574	1542.776	19084.383	252.611
73.439	298.000	6966.385	1562.064	19011.708	260.647
74.291	300.600	7182.802	1573.361	19321.166	261.431
75.150	303.300	7255.771	1577.934	19020.675	260.576
76.016	305.600	7326.513	1657.922	19098.291	258.513
76.883	308.200	7516.605	1673.855	19376.111	266.299
77.748	310.800	7874.876	1715.219	19420.077	267.523
78.650	313.500	8137.698	1725.475	19144.397	264.102
79.552	316.400	8363.222	1741.732	19093.056	263.439
80.427	318.700	8764.808	1820.024	19188.554	269.953
81.311	321.700	9236.329	1788.205	19253.650	266.468
82.215	324.300	9590.633	1834.546	19315.842	263.815
83.081	327.000	9772.356	1864.085	18978.530	263.564
83.977	329.600	9902.635	1893.455	18977.167	262.374
84.842	332.300	9983.636	1850.363	19163.654	249.959
85.707	334.600	9975.752	1877.952	19200.590	253.546
86.573	337.200	9838.088	1898.709	18940.295	246.918
87.441	339.900	9717.988	1934.395	19029.145	247.608
88.341	342.500	9466.730	1883.260	19286.930	246.686
89.206	345.100	9208.924	1851.394	19355.631	240.520
90.072	347.800	8735.442	1782.610	19093.336	242.832
90.938	350.400	8452.139	1736.305	19132.017	239.048
91.801	353.100	8372.533	1654.210	19381.205	243.354
92.668	355.700	8256.440	1627.444	19306.213	236.019
93.528	358.300	8203.980	1615.258	19177.664	241.036
94.393	360.700	8239.686	1560.141	19347.276	238.145
95.261	363.300	8477.222	1503.694	19286.574	243.397
96.126	365.900	8681.198	1538.023	19089.910	240.375
96.990	368.600	8845.860	1525.160	19120.911	238.888
97.857	371.200	9100.720	1482.081	19369.972	241.012
98.754	373.900	9471.366	1494.245	19413.734	244.103
99.649	376.500	9598.496	1474.003	19265.660	244.318
100.516	379.100	9662.730	1496.724	19309.690	242.366
101.383	381.800	9734.484	1475.868	19597.929	249.638
102.275	384.400	9884.111	1457.503	19829.847	249.839
103.143	387.000	9966.460	1479.374	19716.493	250.135
104.011	389.700	10015.990	1514.366	20009.647	249.536
104.908	392.300	9996.706	1494.029	20368.013	253.910
105.777	394.900	10105.408	1472.000	20859.474	251.871
106.643	397.600	10118.350	1460.380	20935.040	252.468
107.512	400.200	10041.226	1465.973	21388.737	253.748
108.409	402.800	10005.233	1452.445	22145.614	254.487
109.291	405.500	10025.871	1442.657	22972.056	257.551
110.157	408.100	9871.958	1448.250	23366.300	261.743
111.021	410.700	9526.671	1438.131	23784.094	258.048
111.917	413.400	9242.165	1447.533	24607.289	264.322
112.784	416.000	9021.181	1442.767	25277.774	264.352
113.643	418.300	8804.412	1480.094	25548.067	262.751
114.507	420.900	8408.528	1481.761	25814.335	264.080
115.374	423.600	8143.978	1509.768	26585.654	275.517
116.273	426.200	8094.482	1510.488	26838.065	270.291
117.149	428.900	7919.903	1506.343	26749.955	273.031
118.014	431.500	7670.193	1505.989	26858.023	274.672
118.915	434.100	7567.965	1493.346	27276.467	272.486
119.819	437.100	7592.605	1500.575	27761.967	280.813
120.686	439.400	7584.665	1525.336	27989.759	276.614
121.553	442.100	7447.275	1545.374	27861.630	278.807
122.419	444.700	7411.312	1556.995	28093.191	289.076
123.285	447.400	7438.277	1539.177	28541.120	283.922
124.150	450.000	7444.913	1545.484	28382.029	285.556
125.059	452.600	7280.316	1567.171	28560.237	291.906
125.953	455.300	7241.396	1572.074	28465.070	291.802
126.818	457.900	7319.152	1540.894	28912.413	296.536
127.685	460.600	7300.378	1532.444	28857.149	292.104
128.587	463.200	7205.466	1547.219	28537.082	291.764
129.453	465.800	7137.368	1563.600	28672.471	299.029
130.345	468.500	7174.735	1541.246	29118.399	299.534
131.210	471.100	7301.306	1572.573	29145.248	304.258
132.106	473.700	7289.873	1598.462	28702.516	304.016
132.972	476.400	7287.085	1624.585	28710.833	301.655
133.837	479.000	7411.022	1633.782	29057.812	309.802
134.702	481.700	7502.099	1649.854	28941.655	310.512
135.567	484.300	7453.593	1690.937	28216.773	318.300
136.462	486.900	7475.727	1654.313	27813.423	316.241
137.329	489.600	7616.840	1676.501	27667.705	322.586
138.195	492.200	7663.045	1665.344	27093.227	320.902
139.061	494.900	7635.428	1732.204	26324.659	320.491
139.924	497.200	7626.382	1699.713	26081.049	321.412
140.785	499.800	7782.822	1718.841	25450.862	325.605
141.679	502.400	7792.799	1712.419	24679.084	330.196
142.571	505.100	7734.763	1761.523	23924.590	330.413
143.439	507.700	7757.669	1749.840	23192.550	336.508
144.304	510.300	7849.429	1760.127	22994.498	334.256
145.172	513.000	7892.565	1805.263	22369.431	337.275
146.038	515.600	7780.759	1804.220	21745.676	337.908
146.903	518.300	7798.542	1826.036	21630.513	344.383
147.766	520.900	7871.372	1814.894	21219.024	342.606
148.631	523.500	7889.738	1833.384	20801.498	346.380
149.497	525.900	7747.896	1851.784	20642.292	345.280
150.363	528.500	7771.373	1841.900	20776.165	349.775
151.267	531.500	7849.332	1836.359	20587.806	351.787
152.165	534.100	7750.802	1828.427	20213.278	352.661
153.031	536.800	7659.569	1861.399	20112.214	355.148
153.896	539.100	7620.441	1870.656	20241.425	356.948
154.762	541.700	7677.936	1838.747	20164.828	359.718
155.627	544.300	7640.224	1900.991	19973.005	358.509
156.492	547.000	7484.954	1890.845	19845.653	365.324
157.398	549.600	7434.296	1917.312	20160.129	368.184
158.267	552.300	7464.033	1918.546	20225.861	369.144
159.133	554.900	7396.249	1937.926	19961.198	372.849
160.000	557.500	7212.218	1945.034	19900.101	376.696
160.867	560.200	7181.332	1922.321	20072.451	380.993
161.733	562.800	7220.791	1948.335	20137.776	382.316
162.600	565.400	7083.396	1968.077	19946.997	381.701
163.525	568.100	7006.480	1984.386	19925.880	384.969
164.389	570.700	6925.202	1960.630	20127.243	391.209
165.258	573.300	7036.223	1977.085	20114.035	392.812
166.124	576.000	7021.074	1993.476	19864.516	395.132
167.003	578.600	6864.276	2005.052	19887.454	398.919
167.895	581.200	6941.896	2042.287	20290.422	403.218
168.760	583.900	7051.055	2031.151	20294.231	407.995
169.625	586.200	7037.554	2045.456	20097.325	406.165
170.491	588.800	6968.893	2055.665	20094.536	411.074
171.357	591.500	6983.707	2052.659	20359.734	417.953
172.222	594.100	7053.876	2051.942	20240.101	418.125
173.087	596.700	7010.920	2047.252	20055.473	420.538
173.971	599.400	7027.139	2081.150	20090.346	425.902
174.835	602.000	7033.216	2039.990	20273.343	429.326
175.702	604.700	7084.851	2051.466	20340.910	425.804
176.567	607.000	7060.915	2107.505	20125.192	431.225
177.434	609.600	7084.169	2118.661	20233.210	434.168
178.300	612.300	7176.282	2111.307	20532.988	443.621
179.166	614.900	7209.409	2111.953	20358.575	434.678
180.034	617.500	7065.791	2105.030	20222.741	439.062
180.899	620.200	7109.217	2105.399	20414.106	446.154
181.767	622.800	7199.001	2101.663	20467.408	449.132
182.633	625.400	7189.441	2098.670	20289.200	451.580
183.501	628.100	7165.386	2172.844	20380.163	453.040
184.366	630.400	7155.514	2132.211	20616.284	461.333
185.234	633.000	7300.692	2130.296	20648.813	462.788
186.099	635.700	7212.845	2164.263	20450.392	458.904
186.964	638.300	7184.412	2208.587	20531.103	459.137
187.829	640.900	7347.371	2224.362	20879.611	471.220
188.696	643.600	7391.322	2236.108	20970.447	469.697
189.560	646.200	7289.430	2283.552	20747.534	475.551
190.454	648.800	7313.199	2267.044	20762.448	484.378
191.319	651.500	7403.054	2257.752	21029.455	488.077
192.184	653.800	7442.390	2212.306	20907.631	480.917
193.050	656.400	7327.572	2234.676	20693.493	482.795
193.947	659.400	7317.066	2238.512	20675.929	495.781
194.812	661.700	7424.768	2226.545	20937.561	490.693
195.706	664.300	7440.714	2242.839	21011.662	496.570
196.575	667.000	7318.030	2266.326	20784.788	497.615
197.456	669.600	7332.520	2281.125	20752.806	502.896
198.323	672.200	7436.576	2262.503	21131.945	500.800
199.206	674.900	7453.365	2281.277	21105.186	503.101
200.071	677.500	7360.721	2349.983	21057.895	503.276
200.956	680.200	7315.331	2331.389	20904.026	509.765
201.859	682.800	7330.565	2308.952	21140.147	513.591
202.733	685.400	7338.169	2297.257	21229.544	522.272
203.601	688.100	7283.356	2342.640	20950.947	518.059
204.467	690.700	7141.056	2351.187	21002.046	522.883
205.334	693.400	7205.762	2347.106	21288.298	528.058
206.201	696.000	7189.432	2373.125	21281.471	527.831
207.069	698.600	6979.029	2362.477	21037.135	534.946
207.933	701.300	6880.738	2396.438	21147.420	541.426
208.799	703.900	6909.401	2405.022	21380.382	536.032
209.663	706.200	6827.438	2452.734	21343.561	540.742
210.528	708.800	6676.053	2459.440	21244.523	540.686
211.394	711.500	6582.178	2478.956	21520.114	555.308
212.261	714.100	6569.181	2438.110	21534.417	555.303
213.127	716.700	6498.711	2489.671	21287.979	553.146
213.992	719.400	6361.856	2498.458	21268.938	556.906
214.857	722.000	6284.751	2479.882	21545.969	563.711
215.757	724.700	6291.394	2453.598	21522.865	566.595
216.623	727.300	6190.452	2446.265	21135.881	572.690
217.490	729.900	6117.721	2491.574	21267.117	570.265
218.357	732.200	6108.481	2462.786	21508.778	579.871
219.223	734.900	6144.137	2465.588	21505.148	578.563
220.091	737.500	6044.058	2481.878	21225.532	580.834
220.957	740.100	6064.637	2524.261	21286.820	577.273
221.823	742.800	6117.278	2493.496	21557.037	577.799
222.689	745.400	6108.591	2498.298	21595.335	585.149
223.556	748.000	6012.195	2507.582	21331.512	586.011
224.442	750.700	6018.220	2551.947	21465.984	593.112
225.339	753.300	6050.087	2522.763	21661.081	599.470
226.206	756.000	6064.725	2502.125	21634.831	586.532
227.072	758.600	5997.026	2563.201	21454.840	594.140
227.941	761.200	5980.654	2540.197	21422.285	608.298
228.821	763.900	6071.041	2534.314	21833.150	606.796
229.690	766.200	6076.365	2557.250	21840.104	605.624
230.554	768.800	6017.405	2588.833	21657.578	602.261
231.419	771.400	6036.785	2615.076	21900.297	619.972
232.280	774.100	6147.443	2595.756	22047.288	621.881
233.178	776.700	6157.323	2640.807	21996.686	622.560
234.044	779.400	6057.874	2651.805	21899.252	614.369
234.941	782.000	6070.959	2663.520	21922.713	624.677
235.810	784.600	6140.019	2604.793	22094.795	632.598
236.677	787.200	6092.723	2586.858	22041.378	628.518
237.544	789.900	6041.592	2632.676	21947.040	628.187
238.411	792.500	6074.761	2674.747	22302.004	628.950
239.278	795.200	6143.644	2625.579	22340.328	646.130
240.142	797.500	6143.408	2638.917	22110.143	638.209
