Mon, Oct 16, 2017	2:19 PM
 Notes: GUA_top chamber_2E-7_16 sec__101617
 waiting time: 50.000
 time(s)	 temp (K)	 MS1=1.971	 MS2=14.708	 MS3=27.883	 MS4=125.586	 MS5=109.505	 MS6=125.586	 MS7=109.505	 MS8=125.586
0.000	99.500	5216.653	1085.845	16304.971	125.732
1.195	99.500	5305.529	1091.899	16659.172	126.293
2.773	99.500	5264.828	1066.917	16430.603	124.981
3.640	99.500	5358.398	1063.142	16756.465	126.255
4.721	99.500	5232.981	1054.439	16622.236	126.777
5.588	99.500	5331.982	1057.778	16799.935	126.267
6.445	99.600	5371.834	1117.221	16650.129	127.006
7.312	99.800	5320.004	1127.593	17038.590	128.598
8.177	100.200	5345.640	1126.341	17868.663	128.203
9.044	100.900	5440.086	1183.859	18604.078	129.171
9.908	102.200	5365.937	1268.815	19415.225	129.324
10.776	104.200	5399.486	1317.480	20684.017	130.241
11.640	106.500	5493.481	1414.716	21886.860	128.573
12.505	109.700	5494.831	1501.921	22036.258	130.267
13.371	113.200	5393.117	1579.044	22026.006	130.101
14.238	117.000	5387.708	1558.354	22304.259	133.642
15.101	120.800	5435.120	1583.945	22149.753	131.362
15.965	124.400	5465.706	1586.136	21918.790	130.559
16.832	128.100	5352.113	1596.180	21820.541	132.776
17.699	131.100	5335.061	1560.453	22089.395	132.877
18.562	134.600	5398.034	1605.991	22272.379	132.801
19.427	137.900	5348.579	1615.579	21806.824	133.476
20.292	141.200	5314.184	1619.846	21723.400	137.259
21.159	144.500	5425.023	1621.796	21773.760	139.271
22.023	147.700	5423.500	1600.443	21559.126	140.290
22.891	150.900	5334.395	1632.019	21085.317	145.461
23.756	154.000	5290.427	1641.158	21069.817	152.466
24.623	156.700	5321.129	1682.681	21034.562	163.088
25.488	159.700	5341.093	1863.183	20685.634	180.537
26.356	162.700	5243.619	2143.571	20766.727	212.035
27.220	165.600	5229.326	2434.482	21131.359	254.218
28.087	168.500	5320.426	2634.552	21378.115	330.025
28.954	171.300	5329.587	2664.236	21162.538	483.576
29.819	174.100	5270.661	2586.422	21491.571	708.361
30.686	176.900	5366.762	2651.264	22133.450	1117.329
31.552	179.300	5445.773	2909.225	22560.109	1746.395
32.417	182.100	5399.528	3321.991	22415.257	2243.982
33.284	184.800	5423.550	3602.645	22250.575	2140.091
34.150	187.600	5542.276	4022.098	22769.763	2634.724
35.017	190.300	5608.091	4898.295	23224.964	3767.720
35.882	193.000	5585.744	6923.629	24453.394	6144.825
36.750	195.700	5736.605	10432.155	27554.147	10863.565
37.615	198.400	5916.669	10439.807	31387.270	19596.044
38.483	200.700	6010.823	10439.807	36451.957	35616.204
39.348	203.400	6130.719	10439.807	46560.953	62547.171
40.212	206.100	6520.191	10439.807	64186.658	100992.703
41.076	208.800	7174.499	10439.807	66043.084	44666.050
41.942	211.400	6780.611	8042.028	34810.968	14291.644
42.808	214.100	6465.221	6163.839	30741.812	10279.255
43.675	216.700	6479.612	5428.366	29473.619	8469.928
44.539	219.000	6457.876	4950.135	28326.090	7341.351
45.404	221.700	6360.130	4699.615	27174.002	6630.543
46.267	224.300	6480.699	4510.210	26809.039	6131.643
47.135	227.000	6594.442	4264.141	26506.459	5696.923
48.000	229.600	6558.309	4093.231	25664.198	5251.746
48.867	232.300	6511.893	3951.086	25121.447	4836.474
49.730	234.900	6473.366	3815.089	25089.427	4466.047
50.596	237.600	6557.163	3680.939	24837.398	4145.025
51.460	239.900	6548.104	3617.828	24091.616	3880.297
52.325	242.500	6426.113	3489.589	23878.446	3670.286
53.189	245.200	6465.726	3423.981	24052.094	3512.864
54.054	247.800	6514.178	3310.810	23754.711	3344.297
54.918	250.400	6365.345	3237.865	23207.464	3208.412
55.783	253.100	6359.830	3234.789	23025.422	3093.745
56.647	255.700	6440.844	3109.643	23266.141	2983.626
57.515	258.100	6511.721	3137.390	22986.410	2906.800
58.378	260.700	6370.926	3032.855	22570.158	2807.264
59.244	263.300	6364.631	3027.367	22781.481	2732.259
60.110	266.000	6513.476	2986.715	22797.440	2672.462
60.977	268.600	6577.499	2979.341	22258.573	2623.898
61.842	271.200	6486.113	2927.716	22113.403	2563.387
62.708	273.900	6499.270	2904.541	22376.423	2500.481
63.573	276.500	6685.007	2854.368	22306.309	2461.521
64.441	278.800	6696.784	2877.848	21830.794	2428.712
65.308	281.500	6712.101	2837.393	21790.356	2372.111
66.176	284.100	6854.722	2822.430	22065.909	2339.926
67.039	286.800	6986.534	2793.717	21917.491	2291.540
67.907	289.400	6930.027	2800.595	21456.253	2257.113
68.773	292.100	7042.603	2758.698	21550.108	2232.889
69.640	294.700	7215.089	2749.420	21724.164	2206.486
70.507	297.300	7463.195	2853.488	21575.224	2176.734
71.372	299.600	7455.583	2862.955	21394.647	2149.898
72.238	302.300	7600.379	2914.253	21770.194	2128.144
73.100	304.900	7915.006	2944.379	21835.430	2111.599
73.967	307.500	8059.841	2973.959	21278.300	2095.857
74.834	310.200	8197.847	2993.028	21316.751	2084.280
75.698	312.800	8427.814	3054.869	21719.694	2046.491
76.564	315.400	8800.768	3081.436	21703.735	2039.982
77.430	318.100	8960.796	3121.646	21334.340	2019.579
78.298	320.400	9233.649	3236.079	21434.194	2017.503
79.165	323.000	9597.831	3228.688	21748.899	1984.872
80.034	325.700	9786.914	3261.956	21730.736	1972.390
80.900	328.300	9756.917	3325.022	21348.159	1944.230
81.766	330.900	9824.712	3317.619	21455.438	1927.354
82.630	333.600	9940.195	3297.604	21614.949	1902.263
83.497	336.200	9860.108	3340.204	21344.937	1898.646
84.362	338.900	9532.975	3319.260	21210.644	1882.076
85.228	341.200	9326.457	3280.252	21587.693	1849.101
86.093	343.800	9157.388	3142.581	21441.670	1821.043
86.960	346.400	8959.452	3079.127	21198.952	1819.489
87.826	349.100	8658.961	3019.329	21125.755	1805.364
88.692	351.700	8616.520	2895.773	21437.072	1782.375
89.557	354.300	8663.828	2818.823	21382.930	1780.936
90.425	357.000	8652.220	2805.112	21103.199	1756.571
91.291	359.600	8685.467	2733.831	21083.457	1746.713
92.150	361.900	8963.368	2644.898	21430.615	1726.589
93.015	364.600	9153.775	2660.720	21315.999	1722.348
93.880	367.200	9177.088	2629.570	21053.807	1712.516
94.750	369.900	9315.721	2543.506	21270.951	1694.277
95.618	372.500	9633.651	2547.625	21431.863	1677.019
96.487	375.100	9794.232	2513.893	21102.740	1664.563
97.356	377.800	9697.095	2490.421	21154.336	1661.939
98.223	380.400	9771.477	2524.727	21697.112	1643.089
99.090	382.700	9958.713	2472.115	21718.955	1647.229
99.956	385.400	9933.756	2445.402	21517.949	1633.066
100.820	388.000	9908.657	2442.704	21684.707	1618.202
101.687	390.600	10012.023	2405.622	22264.368	1603.581
102.550	393.300	10159.940	2427.817	22660.370	1605.784
103.415	395.900	10146.143	2447.404	22651.875	1600.957
104.283	398.500	10126.894	2406.027	23021.474	1603.644
105.152	401.200	10200.515	2370.112	23827.232	1583.979
106.016	403.500	10204.773	2361.075	24208.816	1583.699
106.882	406.100	10112.340	2406.884	24701.475	1582.718
107.750	408.800	10087.757	2443.364	25550.385	1568.556
108.619	411.400	10042.782	2385.479	26226.881	1555.029
109.484	414.000	9929.332	2424.327	26490.335	1556.787
110.352	416.700	9638.096	2409.258	27042.396	1559.500
111.219	419.300	9504.083	2428.801	27997.744	1552.138
112.086	421.900	9402.117	2403.587	28606.267	1552.584
112.952	424.200	9182.814	2471.974	28611.234	1552.699
113.819	426.900	8860.195	2397.680	28959.805	1546.674
114.687	429.500	8757.614	2383.760	29911.485	1535.173
115.556	432.100	8747.753	2390.387	30386.911	1532.613
116.423	434.800	8604.665	2438.618	30359.171	1535.899
117.288	437.400	8505.929	2411.925	30490.739	1522.360
118.155	440.100	8511.113	2407.310	31335.191	1535.110
119.023	442.700	8513.036	2413.545	31436.547	1532.142
119.890	445.400	8309.811	2418.741	31163.287	1524.538
120.757	447.700	8299.953	2420.643	31724.506	1517.686
121.622	450.300	8359.177	2381.079	32106.536	1510.783
122.490	453.000	8379.940	2443.901	31856.965	1505.345
123.354	455.600	8218.159	2467.194	32014.158	1500.365
124.221	458.300	8245.686	2462.870	32617.280	1494.671
125.086	460.900	8389.933	2497.021	32970.220	1491.309
125.954	463.500	8343.817	2517.447	32528.520	1487.055
126.819	466.100	8253.268	2549.548	32698.997	1492.366
127.689	468.500	8300.679	2552.077	33390.956	1483.094
128.555	471.100	8390.072	2534.040	33389.669	1483.234
129.423	473.700	8355.685	2563.669	32685.471	1485.756
130.291	476.400	8305.096	2565.535	32681.777	1478.012
131.157	479.000	8509.488	2537.798	33083.065	1482.011
132.021	481.700	8487.828	2569.440	32837.824	1482.776
132.886	484.300	8398.121	2581.014	31878.095	1488.010
133.750	486.900	8456.244	2635.535	31899.594	1492.863
134.618	489.200	8619.334	2622.081	31697.364	1504.555
135.485	491.900	8625.903	2654.928	30736.590	1523.392
136.353	494.500	8558.776	2664.931	30154.344	1522.475
137.220	497.100	8579.184	2683.042	30005.111	1544.394
138.089	499.800	8737.375	2689.327	29403.237	1565.270
138.953	502.400	8774.810	2730.151	28170.527	1595.850
139.819	505.100	8735.826	2765.666	27492.375	1626.099
140.685	507.700	8768.390	2812.344	27343.346	1669.657
141.553	510.300	8902.092	2854.522	26685.635	1720.323
142.412	512.600	8774.196	2899.039	25643.603	1777.319
143.280	515.300	8895.936	2999.086	25330.566	1836.072
144.146	517.900	9036.935	3043.897	25433.159	1923.024
145.014	520.500	9112.430	3110.813	25195.649	2046.962
145.880	523.200	9124.471	3248.840	24896.941	2158.100
146.745	525.800	9156.483	3263.892	25178.850	2296.711
147.612	528.500	9359.183	3358.941	25597.013	2459.941
148.478	530.800	9497.538	3447.485	25491.313	2665.546
149.346	533.400	9518.006	3638.291	25871.038	2910.468
150.213	536.100	9659.267	3701.366	26778.790	3155.084
151.079	538.700	9886.235	3810.552	27334.303	3429.580
151.944	541.400	10024.530	4032.274	27451.644	3790.149
152.809	544.000	9959.348	4153.881	27959.943	4141.535
153.677	546.600	10143.764	4255.828	29023.156	4470.645
154.540	549.300	10259.685	4394.850	29423.004	4845.033
155.407	551.600	10190.882	4562.731	29402.231	5165.762
156.276	554.200	10217.699	4686.929	29719.687	5449.122
157.144	556.800	10280.161	4800.823	30586.517	5729.362
158.013	559.500	10298.757	4838.593	30584.071	5990.027
158.881	562.100	10227.075	4944.310	30391.611	6180.182
159.747	564.800	10179.462	4977.765	30830.534	6299.038
160.613	567.400	10222.447	5011.081	31161.606	6480.380
161.479	570.000	10229.829	5035.231	30803.813	6611.170
162.358	572.700	10176.547	5126.079	31053.957	6724.920
163.224	575.300	10194.235	5180.306	31705.274	6812.253
164.091	577.600	10286.457	5136.878	31916.877	6864.384
164.956	580.200	10291.710	5200.984	31346.666	6996.957
165.823	582.900	10200.129	5224.602	31434.115	7035.409
166.690	585.500	10225.978	5222.478	32055.501	7029.168
167.559	588.200	10291.412	5220.133	31992.735	7021.997
168.426	590.800	10280.352	5283.764	31499.083	7059.965
169.293	593.400	10247.901	5222.234	31248.035	6920.450
170.159	596.100	10306.055	5141.422	31720.609	6766.262
171.029	598.700	10294.185	5118.763	31540.184	6679.285
171.894	601.000	10206.614	5072.810	30828.369	6502.923
172.764	603.700	10223.489	5018.590	30854.479	6249.086
173.629	606.300	10281.256	4956.832	31008.042	6137.693
174.496	608.900	10295.373	4954.388	30521.421	6042.004
175.362	611.600	10206.999	4903.042	30256.324	5959.115
176.230	614.200	10227.809	4890.929	30685.836	5855.504
177.094	616.800	10324.544	4859.970	30631.375	5798.330
177.962	619.500	10344.337	4782.795	29936.882	5711.047
178.828	621.800	10258.929	4782.233	29831.156	5680.493
179.697	624.400	10312.380	4770.401	30367.399	5575.290
180.564	627.100	10348.938	4710.983	30292.623	5543.614
181.432	629.700	10333.026	4758.159	29727.150	5518.600
182.299	632.300	10337.650	4768.814	29700.786	5498.489
183.166	635.000	10374.957	4711.309	30269.430	5434.730
184.033	637.600	10383.582	4655.758	30288.828	5433.329
184.900	640.300	10373.480	4748.930	29834.672	5382.880
185.766	642.900	10354.190	4691.194	29798.602	5328.648
186.633	645.200	10398.492	4686.886	30406.207	5303.456
187.499	647.800	10407.994	4681.550	30064.157	5339.640
188.369	650.500	10386.284	4686.509	29864.004	5301.787
189.238	653.100	10393.308	4648.541	30243.410	5239.684
190.106	655.700	10410.022	4596.847	30387.752	5226.082
190.972	658.400	10412.871	4654.662	29829.590	5220.325
191.839	661.000	10397.208	4639.544	29860.756	5213.052
192.702	663.600	10395.928	4604.194	30276.703	5155.815
193.568	665.900	10420.606	4579.120	30303.997	5142.161
194.435	668.600	10410.392	4584.710	29714.847	5153.649
195.303	671.200	10404.302	4625.867	29833.258	5121.375
196.169	673.900	10416.683	4611.441	30457.739	5086.223
197.036	676.500	10404.313	4574.343	30365.450	5089.203
197.904	679.200	10377.445	4565.388	29890.164	5099.099
198.772	681.800	10379.505	4582.722	29948.574	5039.722
199.638	684.400	10418.429	4563.040	30387.510	5025.419
200.505	686.700	10402.958	4551.893	30168.316	5018.516
201.370	689.400	10337.737	4550.112	29818.776	5024.145
202.240	692.000	10333.068	4549.326	30213.683	4974.639
203.107	694.700	10311.247	4507.177	30377.499	4920.980
203.974	697.300	10306.365	4435.310	29640.925	4962.131
204.840	700.000	10184.936	4491.551	29642.695	4930.787
205.708	702.600	10146.870	4422.739	30073.747	4876.568
206.573	705.200	10159.790	4431.980	30116.096	4865.513
207.438	707.800	10097.412	4462.379	29600.244	4899.583
208.306	710.200	9870.582	4413.960	29563.449	4879.255
209.175	712.800	9940.089	4423.501	30151.631	4846.306
210.041	715.500	9928.703	4461.219	30214.753	4831.787
210.907	718.100	9721.921	4451.390	29662.806	4821.343
211.774	720.700	9599.286	4458.152	29662.029	4773.963
212.642	723.300	9622.869	4396.135	30093.654	4753.470
213.507	726.000	9515.973	4418.367	29887.732	4760.934
214.374	728.600	9313.146	4437.069	29606.090	4745.051
215.242	730.900	9185.090	4422.257	29821.120	4697.965
216.110	733.500	9254.637	4375.171	30074.779	4683.076
216.974	736.200	9217.586	4497.890	29558.278	4699.939
217.841	738.800	9007.838	4456.957	29532.283	4674.390
218.707	741.400	8996.170	4462.531	30023.146	4636.206
219.575	744.000	9086.819	4410.923	30035.092	4613.955
220.440	746.700	9000.694	4422.033	29501.766	4620.107
221.309	749.400	8918.237	4407.551	29601.314	4604.759
222.177	752.000	8863.267	4339.151	30144.040	4547.713
223.043	754.300	8937.492	4339.396	30195.355	4541.536
223.909	756.900	8819.655	4376.812	29678.586	4537.014
224.774	759.500	8795.750	4371.245	29721.457	4504.243
225.642	762.200	8893.048	4357.924	30318.058	4477.217
226.509	764.800	8853.178	4300.550	30068.411	4493.277
227.375	767.500	8737.646	4355.854	29744.510	4480.719
228.240	770.100	8658.040	4315.181	30116.236	4421.291
229.107	772.700	8823.102	4349.054	30323.624	4387.297
229.974	775.000	8796.554	4271.071	29751.515	4336.390
