Wed, Oct 25, 2017	3:30 PM
 Notes: GUA top chamber_4E-09 above base_ 60 sec_102517
 waiting time: 50.000
 time(s)	 temp (K)	 MS1=1.971	 MS2=27.883	 MS3=125.586	 MS4=17.664	 MS5=32.000	 MS6=84.866	 MS7=56.522	 MS8=125.586
0.000	103.200	7676.765	13826.382	107.875	1728.997	414.620
1.125	103.200	7616.140	13624.534	106.235	1701.868	401.349
2.198	103.200	7703.257	13715.969	107.895	1717.241	406.635
3.297	103.200	7619.528	13658.783	105.581	1716.884	409.615
4.405	103.200	7524.183	13572.480	106.689	1730.168	410.099
5.526	103.200	7484.356	13551.402	106.321	1711.051	406.405
6.617	103.200	7502.607	13398.704	104.533	1725.010	405.730
7.708	103.200	7494.940	13562.406	103.312	1751.718	407.042
8.787	103.300	7452.731	13635.437	105.394	1729.773	412.035
9.878	103.600	7460.131	14349.085	104.059	1761.513	413.194
10.962	104.400	7522.438	15424.475	105.594	2449.281	440.959
12.055	106.100	7507.715	17202.763	117.176	2740.118	455.237
13.133	108.800	7655.763	20427.836	450.353	2336.805	483.779
14.211	112.700	7624.049	21502.066	380.750	1972.632	482.646
15.290	117.500	7606.320	21945.537	150.570	1906.925	494.249
16.368	122.700	7578.593	22300.285	125.579	1965.754	483.092
17.447	127.300	7600.933	22084.644	123.685	2148.319	486.734
18.545	132.200	7518.171	21570.346	120.558	2444.747	487.244
19.654	136.600	7549.745	21212.872	120.450	2855.293	499.967
20.734	140.700	7518.082	21071.982	128.755	3253.116	513.646
21.812	144.600	7456.820	21196.417	166.891	3456.556	532.280
22.910	148.500	7596.424	21637.480	238.759	3437.145	521.963
23.989	152.400	7609.810	21687.356	323.471	3289.377	518.423
25.068	156.300	7516.197	21474.606	407.239	3210.360	512.131
26.181	160.100	7531.290	21331.143	515.994	3252.938	507.979
27.258	163.900	7520.120	21209.344	712.496	3471.980	516.945
28.336	167.300	7554.687	21549.497	1105.513	3787.079	530.458
29.445	170.900	7587.763	22158.414	1876.130	4358.118	546.277
30.526	174.500	7658.985	23143.718	2533.157	5104.932	560.873
31.631	177.900	7737.633	23953.170	2614.035	6056.282	583.824
32.709	181.400	7828.546	25354.435	3476.402	6683.972	609.208
33.827	184.800	7820.738	25901.516	4361.956	6405.209	634.413
34.906	188.200	7951.593	27279.460	6796.591	6162.427	687.473
35.987	191.600	7988.490	30719.702	10439.807	6410.890	784.156
37.087	195.000	8148.765	38761.547	10439.807	8126.044	921.773
38.186	198.400	8555.644	56764.696	10439.807	11859.262	1188.869
39.264	201.800	9284.436	94072.812	10439.807	18199.085	1670.103
40.342	204.800	11013.358	104398.073	10439.807	24395.749	2220.318
41.421	208.100	13385.242	104398.073	10439.807	19463.432	1577.051
42.500	211.500	12097.842	92254.072	10439.807	13216.458	1273.872
43.580	214.800	11312.245	69926.339	10439.807	10701.252	1119.736
44.694	218.100	11195.821	58922.874	10439.807	9197.115	1041.292
45.774	221.400	11044.448	52110.976	10439.807	8271.023	976.451
46.851	224.700	10903.239	47631.350	10439.807	7575.613	930.103
47.928	227.700	10790.611	44187.898	10439.807	7069.657	885.016
49.005	231.000	10574.766	41445.652	10439.807	6641.394	837.662
50.101	234.300	10510.613	39005.463	10439.807	6264.892	821.423
51.213	237.600	10265.143	36932.860	10439.807	5965.725	792.396
52.288	240.900	10164.843	35200.474	10438.971	5721.950	774.871
53.366	244.200	10083.942	33888.951	10261.550	5511.454	758.938
54.446	247.500	9993.207	32632.449	9452.128	5319.771	736.381
55.527	250.800	9932.811	31562.014	8676.223	5167.265	714.322
56.608	253.800	9927.933	30502.176	8033.501	5032.602	703.725
57.692	257.100	10013.636	29780.019	7466.265	4905.250	686.582
58.808	260.400	10040.459	28950.660	6973.085	4802.697	680.800
59.889	263.700	9995.691	28331.923	6453.100	4721.998	675.603
60.969	267.000	9997.155	27680.556	6096.156	4624.896	665.146
62.066	270.300	9981.706	27007.154	5736.581	4560.284	645.418
63.169	273.600	10019.801	26401.192	5457.833	4476.070	646.717
64.245	276.900	10025.303	25940.821	5169.570	4416.515	636.107
65.325	280.200	10137.931	25495.720	4901.627	4368.587	634.604
66.445	283.500	10130.340	24983.689	4649.266	4356.666	626.733
67.527	286.800	10188.724	24573.155	4404.121	4324.825	622.339
68.637	290.100	10360.450	24206.116	4306.377	4297.671	620.633
69.714	293.400	10411.052	23781.534	4086.526	4261.054	614.494
70.794	296.400	10531.386	23467.211	3963.280	4238.459	607.005
71.911	299.700	10712.689	23230.492	3801.463	4241.605	601.617
72.991	303.000	10996.597	23053.913	3668.240	4233.492	607.196
74.068	306.300	11394.879	22813.424	3584.424	4219.686	595.949
75.177	309.600	11745.080	22555.090	3496.498	4245.324	591.912
76.256	312.900	12287.194	22354.109	3372.946	4212.184	591.644
77.335	316.200	12775.281	22211.588	3198.579	4206.745	589.441
78.414	319.500	13133.098	22012.849	3049.992	4206.287	588.970
79.529	322.800	13244.198	21751.522	2933.023	4188.672	583.722
80.607	326.100	13309.944	21521.184	2811.984	4185.539	587.365
81.686	329.000	13060.806	21330.748	2733.104	4156.131	571.699
82.785	332.300	12756.953	21283.114	2603.405	4133.524	584.232
83.867	335.600	12224.837	21118.648	2522.224	4123.933	587.378
84.971	338.900	11732.840	21024.271	2409.079	4099.708	577.902
86.050	342.200	11359.917	20911.146	2326.018	4104.790	577.927
87.128	345.500	11203.756	20729.715	2257.837	4082.985	576.080
88.207	348.800	11175.188	20555.417	2181.175	4076.961	569.585
89.286	351.800	11178.053	20344.667	2136.826	4080.604	565.267
90.365	355.100	11433.661	20315.832	2040.355	4065.524	564.681
91.477	358.400	11768.936	20138.298	1975.028	4042.623	564.987
92.559	361.700	12150.188	19940.590	1927.465	4025.646	558.326
93.638	365.000	12651.228	19869.916	1875.686	4019.112	556.326
94.717	368.300	12997.761	19922.466	1842.811	3972.637	556.657
95.795	371.600	13371.219	19975.017	1779.652	3972.153	558.924
96.874	374.500	13555.961	20185.143	1734.330	3949.762	556.275
97.955	377.800	13641.092	20365.708	1692.000	3903.070	560.275
99.047	381.100	13761.591	20764.435	1646.899	3908.560	556.008
100.128	384.400	13757.223	21230.742	1618.130	3913.578	550.875
101.207	387.700	13935.062	22011.715	1585.154	3886.016	544.838
102.318	391.000	13908.863	22848.169	1546.653	3867.765	562.338
103.398	394.300	13709.907	23857.418	1504.550	3854.710	566.248
104.476	397.600	13383.981	24777.512	1480.490	3855.449	574.004
105.556	400.600	13075.237	25669.713	1447.960	3832.638	575.112
106.638	403.900	12604.014	26313.311	1429.276	3830.536	576.692
107.718	407.200	12206.025	26927.462	1416.371	3827.276	580.271
108.787	410.500	11823.842	27373.773	1370.508	3825.378	583.327
109.862	413.400	11584.423	27837.201	1349.760	3816.934	577.940
110.979	417.000	11433.954	28228.287	1315.750	3843.604	582.869
112.058	420.000	11249.352	28530.587	1282.914	3823.085	583.544
113.152	423.300	11059.006	28508.374	1282.630	3805.407	582.933
114.230	426.600	10989.070	28598.981	1252.395	3803.700	585.251
115.308	429.900	10838.016	28680.316	1230.308	3810.298	587.212
116.406	433.200	10758.311	28750.609	1210.390	3839.044	586.410
117.488	436.500	10734.978	28925.315	1186.759	3821.582	586.830
118.569	439.800	10679.969	28978.133	1176.361	3850.239	582.882
119.651	442.800	10917.249	28967.434	1163.725	3858.123	580.449
120.730	446.100	10764.386	29097.842	1156.825	3849.806	587.174
121.810	449.400	10684.389	29014.139	1137.538	3838.395	583.952
122.920	452.700	10672.034	29044.744	1125.055	3837.019	583.200
124.004	456.000	10669.092	28955.908	1120.914	3831.351	584.308
125.084	459.300	10640.652	28926.130	1100.443	3848.011	583.200
126.161	462.600	10680.708	28601.032	1110.158	3840.700	581.570
127.244	465.900	10704.003	28392.065	1102.742	3839.222	582.971
128.324	468.800	10832.947	28183.862	1098.399	3830.791	573.291
129.402	472.200	10850.727	27634.577	1091.828	3867.370	576.424
130.481	475.500	10842.384	27087.980	1090.981	3855.487	562.771
131.563	478.800	11010.123	26689.418	1107.772	3852.456	559.166
132.642	482.000	11056.739	25874.005	1128.948	3854.544	558.097
133.722	485.000	11072.023	25092.369	1143.799	3845.094	560.555
134.801	488.300	11098.374	24400.029	1162.425	3878.361	559.115
135.881	491.600	11252.676	23832.900	1201.364	3865.383	558.046
136.959	494.900	11244.691	23036.910	1244.919	3891.544	557.154
138.040	498.200	11302.527	22638.858	1326.505	3885.634	552.149
139.119	501.100	11453.950	22302.794	1409.836	3902.191	547.653
140.197	504.400	11552.760	22186.892	1538.485	3925.868	558.924
141.276	507.700	11710.348	22198.954	1682.294	3962.053	559.791
142.355	511.000	11816.162	22396.178	1888.169	3974.114	558.428
143.438	514.400	11969.713	22698.566	2121.500	4021.099	578.449
144.517	517.600	12193.225	23309.279	2466.912	4076.910	590.014
145.597	520.600	12383.813	24046.732	2899.836	4161.251	599.337
146.676	523.900	12730.576	25024.382	3409.431	4252.240	618.353
147.772	527.200	12984.439	26148.858	4185.397	4337.944	644.424
148.853	530.500	13381.039	27671.551	5073.557	4495.812	669.413
149.933	533.800	13937.953	29555.922	6219.475	4658.023	680.468
151.014	537.100	14441.106	31678.005	7678.723	4815.726	711.138
152.094	540.000	14825.148	33877.310	9375.083	5005.524	737.298
153.175	543.400	15404.708	36420.677	10434.994	5198.151	773.979
154.258	546.700	15936.964	39060.611	10439.807	5409.041	802.280
155.338	549.900	16546.148	41558.484	10439.807	5572.972	833.255
156.418	553.200	16847.353	43446.382	10439.807	5761.891	853.799
157.498	556.500	17279.933	45487.309	10439.807	5910.207	885.411
158.578	559.500	17488.365	47280.219	10439.807	6028.720	909.775
159.657	562.800	17625.295	48898.448	10439.807	6176.628	922.907
160.774	566.100	17884.940	50438.527	10439.807	6265.605	945.820
161.888	569.400	18063.085	51144.368	10439.807	6356.301	944.189
162.966	572.700	17987.851	51126.563	10439.807	6373.699	956.123
164.062	576.000	17791.124	50969.854	10439.807	6380.628	940.674
165.143	579.300	17769.217	50747.373	10439.807	6399.058	951.666
166.254	582.600	17745.603	50724.817	10439.807	6366.223	952.977
167.337	585.900	17920.602	50735.694	10439.807	6382.245	943.998
168.416	589.200	18128.155	50631.433	10439.807	6385.659	950.850
169.518	592.500	18149.349	50489.269	10439.807	6383.672	962.619
170.598	595.800	17818.978	49672.417	10439.807	6326.982	945.004
171.676	598.700	17701.548	49003.511	10439.807	6307.674	946.979
172.755	602.000	17725.212	48202.745	10439.807	6278.100	928.383
173.868	605.300	17727.556	47183.906	10439.807	6196.472	920.130
174.967	608.600	17520.703	46148.649	10439.807	6148.493	902.630
176.050	611.900	17337.222	45043.087	10439.807	6085.715	891.460
177.132	615.200	17086.174	43800.099	10439.807	6024.733	874.432
178.212	618.500	17102.655	43025.990	10439.807	5946.442	864.918
179.306	621.800	17196.739	42262.606	10439.807	5892.796	857.518
180.383	625.100	17195.160	41967.120	10439.807	5872.647	859.390
181.496	628.400	17249.710	41542.181	10439.807	5814.709	842.234
182.574	631.700	17228.707	41219.248	10439.807	5809.806	843.431
183.654	634.600	17335.808	40876.625	10439.807	5777.379	839.292
184.733	637.900	17356.085	40733.837	10439.807	5750.581	833.637
185.815	641.300	17710.476	40623.017	10439.807	5732.381	821.066
186.922	644.600	17658.690	40448.171	10439.807	5711.633	819.640
188.001	647.900	17540.432	40192.321	10439.807	5675.920	825.473
189.080	651.100	17237.317	39869.529	10439.807	5702.412	815.959
190.160	654.100	17306.540	39768.350	10439.807	5648.817	812.201
191.240	657.400	17148.404	39518.105	10439.807	5631.534	801.643
192.322	660.700	17203.324	39396.599	10439.807	5607.182	812.291
193.403	664.000	17075.730	39424.071	10436.416	5604.774	808.304
194.482	667.300	16975.125	39196.751	10434.710	5574.729	803.286
195.562	670.600	16709.302	39163.242	10425.741	5596.610	801.617
196.641	673.600	16546.097	38967.024	10421.553	5582.664	797.695
197.719	676.900	16302.284	38703.061	10412.398	5538.252	797.911
198.842	680.100	16418.618	38836.870	10378.202	5533.960	792.626
199.919	683.400	16384.663	38933.336	10331.830	5517.988	790.804
200.998	686.700	16204.812	38867.769	10261.707	5512.550	778.552
202.081	690.100	15844.548	38520.102	10190.510	5491.700	777.214
203.159	693.400	15689.813	38306.677	10181.555	5466.036	780.551
204.238	696.300	15446.814	38160.272	10080.802	5470.354	779.278
205.320	699.600	15256.086	37986.305	10027.666	5467.985	771.292
206.419	702.900	15121.156	38118.433	9842.830	5462.623	779.966
207.527	706.200	14947.036	38013.395	9784.889	5459.744	774.298
208.606	709.500	14758.855	37815.534	9671.175	5432.348	771.712
209.688	712.800	14602.070	37670.097	9576.987	5430.145	768.299
210.767	716.100	14537.827	37675.650	9499.395	5387.847	762.007
211.844	719.300	14520.887	37742.937	9389.482	5422.070	762.860
212.921	722.300	14435.935	37721.667	9235.894	5407.003	763.650
213.999	725.600	14318.276	37761.162	9090.029	5399.985	762.122
215.099	728.900	14158.612	37518.673	9044.691	5355.433	759.957
216.180	732.200	14170.393	37525.551	8999.837	5357.866	763.485
217.257	735.500	14113.003	37598.352	8900.148	5366.323	764.363
218.339	738.700	14174.723	37646.789	8860.037	5333.743	761.498
219.419	741.700	14163.605	37775.822	8615.559	5324.916	755.002
220.498	745.000	14091.096	37768.104	8554.987	5326.878	760.695
221.578	748.400	13991.612	37716.203	8516.016	5331.629	754.493
222.659	751.700	13938.564	37640.319	8461.141	5319.720	752.455
223.738	754.900	13891.363	37602.543	8393.645	5294.234	753.830
224.817	758.200	13916.033	37712.802	8244.703	5288.503	753.525
225.897	761.200	13908.213	37851.171	8122.657	5285.765	751.423
226.980	764.500	13888.434	37860.570	8030.134	5299.405	747.615
228.060	767.700	13820.510	38009.014	7948.592	5291.572	741.310
229.134	771.000	13851.014	37805.281	7933.902	5273.436	742.915
230.209	774.300	13653.561	37885.063	7875.803	5253.847	753.563
231.290	777.300	13605.188	37879.229	7780.796	5251.211	740.814
232.371	780.600	13685.797	37917.515	7656.841	5210.645	735.528
233.451	783.900	13690.853	38114.268	7517.439	5214.491	744.787
234.531	787.200	13566.520	38061.004	7494.337	5220.579	736.407
235.612	790.500	13610.027	38058.648	7403.927	5196.355	734.942
236.691	793.400	13495.438	38003.066	7354.296	5155.483	743.043
237.770	796.700	13550.192	38135.716	7306.100	5196.724	745.997
238.852	800.100	13595.623	38267.551	7183.076	5168.946	737.999
