Tue, Sep 26, 2017	4:13 PM
 Notes: furfural_3.7E-9_90s_92617
 waiting time: 30.000
 time(s)	 temp (K)	 MS1=1.922	 MS2=13.642	 MS3=14.639	 MS4=26.890	 MS5=28.920	 MS6=30.949	 MS7=43.905	 MS8=97.084
0.000	114.000	2660.808	460.994	468.559	307.825	281.741	107.328	2004.142	135.807
1.026	113.700	2070.983	454.180	471.030	301.164	282.811	106.997	1986.247	133.145
2.051	113.400	2043.854	453.734	472.979	303.469	287.358	107.506	1990.438	134.266
3.068	113.100	2028.813	457.211	459.695	297.611	279.576	108.742	1992.705	134.126
4.089	112.800	2072.575	450.881	462.140	300.782	284.632	108.334	2001.850	133.043
5.128	112.500	2061.596	457.835	455.861	302.349	280.200	107.226	1982.872	131.884
6.120	112.300	2018.127	460.090	464.153	296.159	279.550	107.608	1987.967	132.763
7.143	112.100	2015.567	457.249	467.337	301.101	280.493	107.468	1971.715	132.495
8.185	112.200	2024.431	455.046	471.833	299.941	276.188	106.895	1973.218	131.922
9.191	112.700	2025.985	456.230	481.729	298.642	278.188	109.099	1988.616	131.553
10.204	113.900	2023.909	454.931	484.340	299.941	277.742	107.252	1967.741	130.636
11.202	116.000	2018.343	459.911	504.170	303.189	282.263	108.182	1994.259	131.757
12.203	119.400	2024.826	462.841	504.120	306.666	288.326	108.984	2001.315	132.164
13.240	123.200	2017.757	468.865	512.411	312.805	287.039	108.474	2004.308	131.706
14.238	127.400	2018.381	468.024	524.549	310.487	284.378	107.405	2046.924	134.253
15.238	131.700	2014.420	475.615	539.107	303.928	290.376	106.564	2065.570	134.877
16.252	136.000	2045.281	473.157	547.767	313.035	289.854	109.290	2113.421	144.812
17.296	140.600	2027.806	484.582	569.840	314.168	313.429	110.079	2164.188	178.054
18.338	144.700	2037.129	493.217	575.393	324.727	372.501	112.703	2287.108	281.970
19.356	149.100	2059.087	514.984	594.892	341.793	554.199	118.880	2483.389	590.702
20.400	152.900	2070.219	567.432	639.330	379.468	1030.975	133.145	2677.773	1403.415
21.400	156.700	2129.978	688.263	684.570	425.204	1973.040	158.962	2872.297	3129.216
22.437	160.900	2154.445	916.322	769.955	509.112	3518.238	187.619	3098.483	5626.146
23.435	164.500	2197.074	1165.804	876.661	585.849	4898.704	210.111	3258.033	7169.906
24.436	168.100	2222.649	1286.927	930.154	606.342	5184.013	216.671	3357.899	7120.934
25.471	171.500	2198.577	1327.722	931.644	647.201	5837.737	228.770	3539.878	9344.935
26.471	174.900	2271.735	1528.805	883.602	728.001	7720.604	257.249	3784.812	13390.069
27.506	178.600	2255.139	1745.236	836.108	794.078	8683.709	265.286	3849.857	13574.060
28.544	181.900	2275.951	1661.684	843.342	760.733	7561.399	244.449	3821.124	10676.212
29.544	185.100	2308.467	1509.420	818.914	705.037	6664.230	228.121	3791.639	8539.456
30.544	188.300	2276.740	1297.893	796.077	612.214	4362.665	187.466	3537.216	4690.794
31.554	191.800	2184.248	1061.275	736.725	562.210	3596.618	177.455	3538.540	4108.216
32.590	194.900	2162.278	1036.605	729.682	558.339	3550.933	176.436	3593.498	4199.626
33.602	198.000	2224.483	1067.682	742.673	565.178	3776.011	177.366	3693.377	4604.696
34.638	201.500	2213.338	1115.189	767.344	578.870	3870.987	178.525	3728.619	4645.070
35.671	204.500	2186.439	1071.044	756.238	576.959	3640.368	174.284	3720.391	3995.651
36.669	207.600	2205.391	1010.725	727.135	543.692	3051.842	163.534	3626.358	3067.011
37.670	210.600	2170.187	921.697	728.727	520.295	2451.917	158.414	3510.482	2381.523
38.668	213.600	2190.795	858.078	709.864	494.032	2080.293	149.409	3530.593	1969.652
39.671	216.700	2157.260	799.720	692.963	481.678	1813.745	143.653	3459.740	1671.364
40.712	220.000	2150.127	756.021	671.897	473.909	1598.219	141.143	3489.632	1444.961
41.713	223.000	2151.032	739.273	691.906	467.375	1428.684	136.507	3494.307	1264.970
42.713	226.000	2158.699	713.634	679.972	464.929	1304.975	134.584	3487.136	1137.707
43.755	229.000	2150.611	688.250	656.320	464.713	1184.794	134.673	3485.417	1033.332
44.758	232.300	2156.903	676.838	650.066	458.905	1117.940	132.699	3483.952	949.870
45.755	235.300	2150.115	666.942	650.449	458.256	1057.671	131.566	3512.380	850.398
46.752	238.300	2151.758	670.292	672.381	462.739	997.479	131.438	3529.039	813.195
47.754	241.200	2183.471	651.187	638.260	456.141	952.341	129.260	3517.551	765.102
48.753	244.200	2177.294	643.584	644.526	466.802	916.895	129.018	3510.839	718.385
49.753	247.200	2172.021	642.985	645.392	470.100	880.634	131.145	3558.587	682.213
50.755	250.200	2180.134	631.344	653.467	469.629	845.100	129.681	3493.530	650.920
51.756	253.200	2195.520	632.936	639.916	472.075	835.700	128.955	3484.856	620.225
52.758	256.100	2137.595	636.846	665.936	477.144	808.699	129.884	3490.855	605.336
53.783	259.400	2169.831	635.687	675.552	473.679	801.363	129.057	3527.141	586.130
54.783	262.400	2169.461	636.642	677.985	464.458	788.359	129.158	3486.716	568.681
55.811	265.400	2189.279	622.734	679.386	477.373	778.832	129.732	3482.513	552.531
56.824	268.300	2212.001	626.682	677.756	470.814	765.777	130.177	3483.060	540.278
57.863	271.600	2193.737	635.585	714.768	473.985	767.866	129.413	3429.198	525.924
58.879	274.600	2235.652	640.247	727.810	476.125	768.146	129.693	3419.378	510.004
59.880	277.700	2230.762	651.417	773.852	472.928	749.105	129.821	3334.604	486.722
60.898	280.700	2290.063	656.575	804.267	467.247	736.738	128.674	3386.225	470.177
61.897	283.700	2319.356	649.939	803.668	468.368	709.877	128.203	3375.068	455.517
62.899	286.900	2346.128	641.546	765.866	465.146	689.804	127.847	3360.485	446.513
63.899	289.800	2433.755	636.502	753.130	467.961	672.827	128.725	3310.978	443.316
64.897	292.800	2497.463	635.369	730.293	494.707	687.957	130.050	3333.624	428.210
65.964	295.700	2531.100	636.082	714.959	468.559	664.370	128.674	3360.612	416.327
66.978	299.000	2552.000	626.810	707.699	482.327	648.793	127.923	3354.460	400.279
67.978	302.000	2628.215	623.103	682.137	488.938	640.642	128.993	3331.280	390.128
68.986	304.900	2629.489	626.555	689.957	487.931	639.011	129.757	3301.107	377.583
70.014	307.900	2655.713	625.039	694.962	486.314	619.741	130.075	3280.614	368.999
71.033	310.900	2684.485	628.758	715.863	498.528	634.184	128.967	3293.873	355.332
72.032	314.200	2698.903	633.917	715.838	501.967	623.103	130.763	3252.059	346.875
73.033	317.200	2694.292	638.565	701.636	509.278	610.685	129.018	3254.759	334.457
74.030	320.100	2716.594	637.559	748.150	507.584	606.661	129.235	3221.505	326.306
75.086	323.100	2696.330	639.253	723.989	510.972	607.106	129.948	3212.411	315.276
76.076	326.000	2703.335	642.488	724.982	509.176	598.306	129.604	3187.753	307.673
77.112	329.300	2746.448	642.081	714.615	506.680	597.681	129.388	3206.170	300.031
78.162	332.300	2758.993	640.858	733.605	505.813	590.511	128.929	3158.930	293.306
79.159	335.300	2736.870	635.572	709.240	501.712	584.843	129.541	3129.484	284.390
80.189	338.600	2785.944	636.961	712.360	500.057	581.697	130.279	3138.820	276.430
81.189	341.600	2717.587	638.553	723.492	491.561	576.093	129.515	3106.736	270.100
82.191	344.600	2764.202	643.074	722.957	483.066	570.566	128.038	3085.467	263.999
83.195	347.500	2763.031	635.445	723.441	486.263	554.454	128.407	3084.333	260.637
84.195	350.400	2751.759	642.323	724.587	488.581	543.501	127.312	3056.007	259.580
85.185	353.400	2757.770	639.699	728.014	480.073	548.570	125.783	3071.431	252.587
86.184	356.300	2774.048	626.071	693.689	473.794	542.252	127.554	3058.198	250.664
87.184	359.300	2749.543	630.567	702.910	478.290	539.310	128.305	3043.971	242.335
88.186	362.300	2757.528	634.579	713.443	478.124	521.836	126.930	2983.524	239.303
89.184	365.200	2758.993	622.034	675.578	463.108	511.749	128.624	3019.581	243.927
90.181	368.500	2790.720	618.315	695.230	468.152	510.641	128.407	3002.667	233.788
91.218	371.500	2787.319	620.569	666.191	463.439	506.794	126.637	2930.349	232.043
92.219	374.500	2756.089	628.848	679.118	465.095	493.077	129.133	2956.395	226.847
93.222	377.500	2759.172	627.243	679.704	456.829	487.511	127.299	2980.136	226.350
94.218	380.400	2794.057	614.010	674.648	447.875	478.277	127.146	2900.559	224.287
95.211	383.400	2772.532	615.856	680.303	452.142	476.889	125.248	2916.174	221.523
96.212	386.400	2825.146	617.461	668.916	448.207	480.774	127.465	2918.988	220.071
97.213	389.300	2803.571	606.928	652.550	448.334	478.481	125.898	2911.958	218.989
98.216	392.700	2842.009	619.155	675.119	451.836	475.119	128.827	2937.087	216.136
99.219	395.600	2865.355	610.023	641.801	444.029	469.311	126.840	2903.807	210.264
100.221	398.600	2900.737	617.741	629.930	447.264	469.986	127.350	2905.552	210.646
101.223	401.500	2932.285	614.914	639.291	440.590	483.767	128.025	2877.608	210.608
102.258	404.500	3014.767	619.639	646.717	443.494	470.839	127.019	2887.619	204.367
103.256	407.500	3082.983	617.576	652.015	445.354	477.640	128.076	2893.936	203.043
104.291	410.800	3103.183	615.704	654.703	445.443	483.678	128.140	2895.159	201.451
105.289	413.700	3152.167	613.678	660.574	437.712	486.607	128.624	2840.163	201.833
106.304	416.700	3265.343	616.901	650.550	440.144	484.696	126.662	2929.356	199.222
107.305	419.600	3290.447	620.875	635.330	436.591	494.962	128.050	2892.293	196.776
108.303	422.600	3322.288	622.097	635.190	434.719	489.906	127.885	2880.028	195.477
109.303	425.600	3367.108	625.676	643.431	442.246	492.631	127.095	2843.576	192.535
110.339	428.900	3381.856	615.207	634.897	435.075	499.662	126.280	2854.771	191.784
111.341	431.900	3355.734	611.730	642.310	439.355	489.307	128.369	2834.890	190.013
112.342	434.800	3270.553	626.160	663.847	438.476	494.325	127.961	2841.169	191.274
113.341	437.800	3220.817	629.650	653.849	439.087	500.566	130.356	2866.553	189.593
114.338	440.800	3175.997	629.077	665.809	440.985	497.293	127.630	2857.981	190.153
115.338	443.800	3128.134	617.716	671.158	438.858	494.695	128.713	2835.960	188.065
116.382	447.100	3034.330	623.587	657.759	435.062	492.377	127.490	2823.350	189.032
117.383	450.000	2987.498	618.633	646.411	439.062	496.681	125.936	2826.662	186.740
118.384	453.000	2960.153	612.290	632.490	440.183	494.491	127.579	2817.797	186.345
119.386	456.000	2964.292	629.191	659.364	436.476	500.744	129.655	2820.778	186.154
120.388	458.900	2994.847	626.300	681.385	438.603	496.860	130.610	2802.030	190.051
121.392	461.900	2968.890	630.631	678.609	438.425	503.992	127.452	2795.228	190.166
122.416	465.200	3041.309	631.267	680.647	432.222	507.304	127.885	2847.906	185.950
123.420	468.200	3054.415	626.631	685.117	439.635	510.641	129.057	2785.842	188.549
124.424	471.100	3105.947	637.865	686.225	437.049	512.678	130.292	2811.760	188.943
125.424	474.100	3269.381	634.426	696.071	441.265	510.169	130.891	2829.171	188.829
126.423	477.100	3365.261	639.151	694.580	432.260	510.641	129.235	2740.245	191.669
127.413	480.000	3406.183	646.577	667.490	446.118	505.482	129.897	2700.940	189.962
128.424	483.000	3556.295	640.323	695.650	440.144	524.039	126.993	2796.107	190.726
129.426	486.000	3523.600	666.305	736.725	439.024	513.685	129.846	2802.030	194.191
130.421	488.900	3491.505	657.352	717.901	435.929	509.825	130.827	2785.689	192.930
131.417	491.900	3564.102	659.733	714.233	441.316	502.247	129.222	2811.327	192.140
132.419	495.200	3524.772	650.474	690.734	437.533	495.739	127.312	2743.977	191.733
133.436	498.200	3420.499	650.576	695.701	440.628	477.640	128.967	2812.461	197.833
134.455	501.100	3380.850	649.086	714.844	433.037	479.933	129.502	2791.395	193.376
135.450	504.100	3217.034	644.424	680.086	430.439	481.665	130.585	2756.841	195.579
136.445	507.100	3163.656	652.970	706.298	433.445	468.840	128.076	2763.502	196.025
137.444	510.000	3032.814	646.080	693.103	430.490	469.247	131.120	2738.207	196.827
138.441	513.000	3058.134	653.849	709.673	430.783	462.650	130.203	2798.247	199.578
139.443	516.000	3006.297	659.173	711.889	431.318	465.375	128.522	2789.459	199.438
140.442	519.300	2942.334	655.709	728.217	432.502	468.508	130.814	2762.152	201.361
141.444	522.200	2895.133	660.408	715.596	436.400	453.237	130.343	2738.819	205.131
142.439	525.200	2927.356	653.161	684.149	430.121	451.836	129.681	2743.353	202.571
143.440	528.200	2940.144	651.200	701.585	431.267	459.045	129.324	2740.462	203.896
144.471	531.200	2936.144	667.605	716.780	427.739	454.855	128.700	2740.092	205.284
145.502	534.500	2884.957	659.441	713.456	439.087	456.829	130.534	2752.638	203.565
146.547	537.400	2907.666	670.356	699.076	438.310	463.834	127.095	2767.348	203.909
147.548	540.400	2865.597	668.802	701.420	429.891	457.733	128.216	2747.008	204.647
148.562	543.400	2874.806	665.962	676.928	438.145	462.726	129.859	2762.699	206.367
149.581	546.700	2898.419	679.258	691.664	437.240	465.439	128.598	2754.586	205.615
150.581	549.600	2894.331	679.437	693.065	435.738	461.694	129.566	2739.850	207.386
151.582	552.600	2893.248	681.615	704.515	443.252	465.948	130.075	2737.456	205.985
152.583	555.600	2843.372	689.155	686.162	440.399	461.745	129.286	2766.431	209.029
153.584	558.500	2846.225	676.304	676.036	437.189	459.848	128.241	2739.328	207.424
154.574	561.500	2800.807	673.731	677.233	428.732	468.980	130.534	2703.857	213.792
155.566	564.400	2746.894	686.378	684.124	436.489	458.880	129.681	2727.063	209.385
156.564	567.400	2736.284	693.434	692.441	435.788	463.376	129.222	2753.415	210.608
157.564	570.400	2761.171	689.753	677.730	438.501	462.013	130.891	2751.249	213.932
158.561	573.400	2690.280	681.831	679.666	428.185	470.533	131.693	2739.889	212.506
159.585	576.600	2678.779	686.480	684.429	438.056	466.547	129.426	2671.163	213.295
160.586	579.600	2677.798	679.844	663.096	435.355	472.622	128.254	2712.836	214.429
161.586	582.600	2649.409	684.035	662.153	434.311	466.050	130.470	2771.997	215.805
162.577	585.600	2597.546	686.862	697.561	433.572	474.061	130.088	2701.730	214.607
163.565	588.500	2625.210	694.236	700.656	434.196	476.303	130.942	2744.932	218.275
164.562	591.500	2580.606	698.643	694.861	434.196	477.857	129.923	2728.986	220.784
165.568	594.500	2615.606	694.580	689.715	440.093	485.079	131.273	2735.214	219.205
166.564	597.400	2630.546	707.584	694.478	441.775	478.570	130.801	2791.433	223.943
167.565	600.400	2637.577	708.629	685.423	439.966	477.895	132.457	2733.928	222.326
168.564	603.400	2628.432	710.845	709.342	433.751	483.486	132.088	2768.788	223.446
169.563	606.300	2663.648	718.550	720.474	439.775	474.698	131.375	2738.844	224.376
170.560	609.300	2661.126	706.413	708.310	441.800	483.181	130.305	2740.398	223.510
171.558	612.300	2656.923	710.705	695.128	437.470	479.627	132.343	2717.179	228.032
172.555	615.300	2713.842	711.724	705.636	439.189	480.914	132.343	2719.332	227.726
173.554	618.600	2670.793	718.181	702.834	438.323	485.563	131.094	2779.079	229.038
174.553	621.500	2695.731	719.875	704.578	444.233	487.358	132.534	2775.538	230.388
175.558	624.500	2721.459	726.243	720.346	440.144	492.440	131.553	2766.992	226.503
176.558	627.500	2711.015	720.881	730.663	440.170	494.796	133.030	2759.757	234.247
177.557	630.400	2746.970	722.473	716.411	438.909	491.549	131.400	2752.026	232.477
178.556	633.400	2740.971	723.747	694.631	439.049	486.225	133.145	2756.331	231.509
179.558	636.400	2731.597	716.818	694.020	442.539	499.866	129.693	2726.439	233.381
180.555	639.300	2715.817	723.034	686.404	440.705	500.808	132.928	2745.938	235.406
181.556	642.300	2726.261	723.530	688.811	432.795	497.407	133.336	2726.936	232.731
182.556	645.300	2735.240	726.918	686.888	441.978	500.311	134.508	2757.669	236.871
183.555	648.300	2713.206	718.461	694.720	436.451	502.960	133.069	2726.362	238.272
184.552	651.600	2725.496	722.168	676.546	436.553	498.936	134.240	2718.338	238.730
185.552	654.500	2647.205	725.594	682.251	448.117	505.253	133.896	2748.728	232.668
186.551	657.500	2678.881	732.790	710.450	438.056	506.794	133.272	2745.149	242.016
187.567	660.400	2679.696	725.326	673.196	446.538	507.622	134.508	2734.132	241.876
188.567	663.400	2728.260	732.599	693.727	437.877	503.788	131.400	2740.271	238.641
189.566	666.400	2699.960	720.881	680.277	445.061	508.297	133.107	2724.044	244.602
190.556	669.300	2702.838	721.454	690.454	439.024	504.807	133.030	2718.937	245.786
191.559	672.300	2638.838	724.931	680.685	444.691	501.661	132.941	2766.966	243.379
192.557	675.200	2700.100	724.957	675.552	451.225	514.525	133.374	2759.121	245.544
193.560	678.200	2679.594	732.611	678.240	445.888	513.837	133.909	2757.121	246.436
194.561	681.500	2681.454	743.119	680.316	444.500	512.717	132.865	2760.241	246.474
195.562	684.500	2685.873	735.222	690.849	444.207	514.551	134.304	2749.925	249.671
196.572	687.400	2670.717	738.432	696.465	450.346	523.428	131.833	2754.586	249.569
197.574	690.400	2681.696	735.948	694.173	447.672	526.930	135.883	2757.783	249.199
198.574	693.400	2673.570	737.808	693.281	452.690	520.855	133.591	2770.061	252.091
199.575	696.300	2661.750	734.395	698.873	448.690	530.076	133.820	2760.891	255.517
200.575	699.300	2675.391	737.082	701.509	450.270	523.199	135.081	2755.045	255.759
201.577	702.300	2633.004	732.268	694.440	452.511	528.663	135.425	2805.048	254.956
202.581	705.200	2639.653	737.095	702.477	449.455	522.638	133.578	2732.692	259.809
203.583	708.500	2566.686	731.529	698.210	453.161	535.375	135.998	2803.864	262.827
204.583	711.500	2573.984	741.476	692.988	453.288	530.675	136.737	2752.014	259.516
205.582	714.500	2552.332	731.312	698.376	446.538	544.023	136.062	2769.501	264.025
206.581	717.400	2545.760	743.246	691.434	455.594	541.577	137.603	2776.200	262.331
207.586	720.400	2516.287	739.884	704.719	449.111	540.584	136.049	2787.485	261.057
208.589	723.400	2466.182	738.941	698.554	451.340	532.700	135.960	2776.098	261.910
209.590	726.300	2454.274	742.126	714.195	442.488	536.088	137.170	2785.218	264.292
210.588	729.300	2382.860	741.527	688.136	456.982	530.484	134.584	2761.821	267.311
211.586	732.300	2419.669	743.603	701.280	449.748	540.558	137.170	2777.053	268.928
212.615	735.600	2411.454	747.258	700.541	453.709	542.762	135.348	2771.602	266.228
213.617	738.500	2395.877	759.587	695.268	452.168	549.767	134.189	2773.959	267.514
214.621	741.500	2404.793	746.112	696.147	455.555	549.856	134.495	2776.531	268.037
215.620	744.500	2385.268	752.276	706.158	456.498	548.493	134.813	2770.749	269.743
216.652	747.400	2379.434	746.443	717.391	459.937	542.596	135.539	2801.113	269.374
217.650	750.400	2394.196	760.262	710.297	456.931	547.207	134.571	2798.782	273.310
218.675	753.700	2364.571	757.779	712.641	451.136	549.334	138.838	2758.293	273.564
219.711	756.700	2407.518	759.116	713.902	465.350	545.793	135.514	2791.382	273.539
220.709	759.600	2356.496	757.702	698.643	462.191	560.083	137.717	2782.950	274.341
221.711	762.600	2374.836	755.677	716.411	464.038	552.047	136.762	2763.464	274.290
222.714	765.900	2366.507	766.847	710.233	456.740	553.142	136.991	2771.156	277.169
223.714	768.800	2403.226	760.542	726.434	467.833	550.289	137.730	2747.670	277.334
224.794	771.800	2387.662	758.874	712.475	466.789	555.919	139.144	2759.745	279.398
225.793	774.800	2354.738	767.904	729.198	462.904	552.594	138.596	2822.433	278.684
226.791	778.100	2378.645	768.324	727.886	467.222	558.606	139.360	2801.138	279.831
227.791	781.100	2355.694	766.427	719.493	464.140	559.332	134.941	2769.794	281.792
228.789	784.000	2410.282	776.769	712.602	461.643	560.618	138.176	2823.707	281.168
229.805	787.000	2357.833	771.674	705.827	467.337	559.026	138.392	2780.467	282.276
230.806	789.900	2401.557	756.913	701.254	465.936	564.809	139.908	2779.512	284.288
231.793	792.900	2366.328	763.294	698.618	465.006	558.109	136.864	2782.530	281.168
232.792	795.900	2376.836	777.316	717.162	467.655	558.300	137.246	2800.845	281.206
233.793	798.800	2355.515	767.828	706.553	464.153	559.281	139.271	2800.361	279.780
234.791	801.800	2343.670	769.305	715.506	467.757	561.293	138.431	2790.057	283.957
235.790	804.800	2391.343	771.559	707.202	469.082	571.521	139.450	2811.951	284.989
236.787	807.700	2366.328	785.506	729.733	477.526	566.987	139.016	2783.409	283.550
237.791	811.000	2358.101	787.875	735.592	465.923	568.464	137.514	2850.441	284.187
238.789	814.000	2364.176	781.545	732.994	472.164	561.510	137.947	2827.184	283.868
239.791	817.000	2370.188	788.779	709.737	472.036	570.247	140.341	2823.885	281.665
240.789	819.900	2366.749	790.511	715.850	475.170	563.688	138.227	2853.141	284.581
241.803	822.900	2404.423	780.297	709.762	463.987	574.119	141.143	2822.370	285.664
242.799	825.900	2365.055	781.812	706.285	468.903	569.572	138.596	2793.280	282.251
244.495	831.100	2350.319	790.053	721.072	476.622	564.528	140.175	2866.030	282.989
245.485	834.100	2339.060	781.405	712.297	473.030	572.209	139.500	2894.127	286.059
246.478	837.100	2323.801	797.746	715.710	474.329	569.228	141.118	2884.116	286.772
