Tue, Sep 26, 2017	2:34 PM
 Notes: furfural_1.0E-9_15s_92617
 waiting time: 30.000
 time(s)	 temp (K)	 MS1=1.922	 MS2=17.627	 MS3=27.844	 MS4=39.000	 MS5=41.000	 MS6=68.654	 MS7=82.865	 MS8=97.084
0.000	96.000	2832.572	993.836	6158.976	230.846	131.031	84.301	80.951	98.247
1.029	96.000	2188.731	1009.056	6064.993	232.910	133.336	85.103	80.340	99.177
2.066	96.000	2212.179	1002.599	6139.451	234.081	133.158	84.963	80.798	98.018
3.098	96.000	2188.604	1010.941	6187.913	233.228	130.763	84.530	80.900	98.871
4.100	96.000	2203.735	1022.213	6178.590	230.795	130.088	84.759	81.040	97.470
5.142	96.000	2197.316	1027.970	6157.867	237.138	132.343	85.434	80.594	99.330
6.139	96.000	2194.055	1029.396	6225.192	231.190	131.247	85.409	81.448	97.088
7.134	96.100	2207.734	1034.796	6165.509	223.892	123.083	83.677	81.155	95.445
8.173	96.000	2057.329	983.787	5721.020	223.357	125.783	84.339	80.747	94.859
9.182	96.000	2171.588	1009.540	5967.228	227.433	128.547	84.466	80.824	95.292
10.182	96.100	2153.579	1034.185	6181.048	230.069	131.069	84.988	80.900	95.916
11.201	96.400	2171.728	1032.084	6587.977	234.043	129.069	83.957	81.804	97.419
12.198	97.000	2198.182	1051.736	7660.081	251.810	130.649	84.466	80.900	96.235
13.243	98.200	2223.094	1044.158	8070.997	255.071	131.476	84.581	81.855	95.942
14.265	100.300	2259.890	1056.818	8108.531	254.230	131.311	84.237	81.486	96.617
15.268	103.100	2283.452	1066.714	8245.117	256.306	130.840	85.536	81.664	96.426
16.287	106.500	2253.216	1060.549	8009.429	253.950	133.145	84.874	81.613	96.846
17.283	110.500	2277.504	1057.913	7648.962	251.225	132.890	84.670	81.410	96.273
18.289	114.600	2303.551	1075.884	7393.227	247.429	133.183	85.192	81.524	95.050
19.288	118.800	2303.487	1076.929	7235.256	239.189	130.279	85.230	81.575	95.420
20.299	123.400	2303.385	1078.037	7045.114	238.386	132.572	85.320	80.722	96.617
21.295	127.500	2303.194	1085.615	6961.104	241.456	131.935	84.568	80.976	95.942
22.292	131.500	2281.797	1089.894	6916.731	237.940	131.922	84.186	81.422	95.407
23.322	135.400	2286.471	1085.182	6887.042	235.151	131.031	84.262	81.040	94.464
24.322	139.200	2334.118	1080.686	6878.891	236.845	132.546	85.689	81.550	95.356
25.351	142.900	2259.024	1083.462	6873.630	234.298	133.349	85.625	81.066	95.407
26.351	147.000	2266.971	1080.189	6730.562	233.266	129.923	85.027	80.569	95.165
27.350	150.600	2262.093	1094.594	6731.288	233.126	135.119	84.594	81.320	94.821
28.350	154.100	2262.858	1097.714	6626.480	233.954	133.845	83.486	80.836	94.796
29.349	157.500	2262.692	1106.579	6633.281	229.700	132.890	85.421	81.702	94.668
30.348	160.800	2296.393	1104.414	6556.684	229.089	132.954	84.938	81.486	94.592
31.386	164.100	2264.169	1102.643	6552.494	228.936	134.075	85.154	81.893	94.070
32.385	167.400	2286.980	1115.775	6480.240	228.324	132.164	84.122	80.900	93.840
33.425	171.000	2257.152	1127.976	6458.600	226.338	133.119	84.262	81.741	94.796
34.469	174.100	2247.727	1133.937	6480.265	226.618	133.349	85.001	81.817	94.566
35.470	177.300	2253.878	1143.438	6538.904	228.388	132.508	84.301	81.601	93.700
36.517	180.700	2211.593	1167.790	6537.834	230.375	130.891	85.243	81.550	93.382
37.549	183.800	2226.087	1192.092	6496.835	230.133	133.285	85.014	81.715	94.783
38.548	186.900	2224.088	1194.703	6592.155	229.764	132.623	84.696	81.741	94.757
39.548	190.300	2238.646	1201.848	6548.749	230.490	134.699	84.466	82.288	93.573
40.550	193.300	2238.888	1184.195	6493.868	228.312	132.534	84.925	81.690	94.732
41.547	196.400	2208.944	1181.406	6445.380	236.590	134.903	85.001	82.428	96.986
42.569	199.300	2195.125	1181.953	6483.921	239.061	134.202	84.785	82.110	99.954
43.568	202.300	2201.812	1173.815	6520.360	235.164	134.444	85.880	81.486	100.501
44.569	205.300	2225.298	1182.132	6485.067	241.035	133.298	85.956	81.855	101.380
45.590	208.300	2195.494	1177.521	6424.683	242.207	136.469	85.230	81.970	99.890
46.608	211.600	2202.398	1202.765	6405.731	239.405	135.769	86.071	81.078	100.310
47.608	214.600	2211.835	1199.262	6428.033	239.329	132.992	85.893	82.034	98.833
48.608	217.600	2206.371	1205.770	6463.886	237.762	134.495	85.345	81.511	97.967
49.640	220.600	2201.086	1203.936	6434.452	237.915	136.151	85.498	81.830	99.788
50.644	223.500	2195.889	1225.703	6354.327	238.437	133.769	85.842	82.072	98.616
51.642	226.500	2202.716	1212.928	6366.465	239.074	133.145	85.230	82.072	99.444
52.644	229.800	2206.193	1226.365	6382.526	241.558	135.756	86.453	82.148	99.954
53.644	232.800	2210.180	1231.791	6393.250	240.793	136.087	85.956	80.824	100.272
54.645	235.800	2236.837	1235.077	6486.990	238.857	134.979	85.638	81.766	99.890
55.645	238.700	2189.190	1236.809	6427.282	244.767	135.196	85.498	82.569	101.979
56.642	241.700	2193.864	1234.377	6494.543	244.512	135.297	85.969	81.804	100.934
57.647	244.700	2204.525	1244.859	6392.511	247.072	133.782	85.294	81.422	101.915
58.684	248.000	2227.068	1241.445	6440.668	244.169	135.119	86.682	81.753	101.750
59.701	251.000	2218.891	1249.495	6345.399	243.952	136.558	85.765	81.766	103.736
60.749	253.900	2210.969	1263.670	6347.666	247.213	135.934	86.389	82.046	103.787
61.760	256.900	2230.061	1265.390	6286.607	248.181	137.603	87.115	82.276	104.233
62.776	260.200	2227.272	1276.471	6310.539	253.568	136.189	87.574	81.282	104.896
63.778	263.200	2261.749	1284.444	6319.455	256.281	137.450	87.714	81.970	103.978
64.780	266.200	2219.299	1275.159	6320.512	261.681	135.157	89.179	81.027	106.462
65.811	269.100	2207.620	1308.121	6389.607	260.382	137.195	90.249	81.919	106.857
66.814	272.100	2221.553	1283.718	6241.712	272.927	137.705	92.656	82.327	108.080
67.812	275.400	2200.831	1298.161	6286.837	278.774	137.106	94.197	82.046	108.806
68.812	278.300	2254.044	1303.586	6291.103	285.002	138.494	96.133	81.919	109.761
69.813	281.300	2312.644	1311.712	6292.403	289.434	138.647	96.337	82.365	112.563
70.839	284.300	2361.463	1311.521	6331.351	288.186	139.717	94.566	81.486	111.468
71.869	287.300	2423.668	1309.980	6320.461	287.039	138.138	92.465	81.728	115.849
72.868	290.300	2536.653	1319.036	6321.569	292.835	140.137	91.739	82.569	116.893
73.869	293.600	2544.639	1305.854	6348.430	288.670	139.653	92.363	81.868	119.759
74.886	296.500	2603.252	1339.987	6360.836	295.344	139.386	91.904	82.339	119.797
75.888	299.500	2653.039	1330.957	6285.436	298.349	141.666	94.108	81.422	118.345
76.889	302.500	2642.722	1340.751	6287.779	306.514	143.589	94.044	82.696	117.734
77.890	305.400	2585.472	1334.205	6263.096	303.317	142.201	95.585	82.135	117.212
78.891	308.400	2530.565	1344.611	6272.661	308.220	142.494	95.572	82.046	118.715
79.891	311.400	2584.988	1340.038	6286.480	312.589	143.767	95.853	82.199	115.709
80.937	314.700	2537.914	1342.585	6256.307	311.774	144.990	98.005	81.639	116.791
81.958	317.600	2517.230	1352.418	6382.513	312.856	144.633	99.584	83.091	117.683
82.961	320.600	2536.577	1367.613	6307.699	322.128	145.168	100.845	82.186	114.588
83.963	323.600	2506.748	1373.255	6345.743	316.906	146.404	100.896	82.658	116.562
84.999	326.900	2516.797	1382.629	6425.957	316.741	149.129	101.648	82.849	115.429
86.000	329.800	2532.310	1397.250	6402.140	319.301	146.760	101.355	82.492	113.735
87.001	332.800	2539.060	1381.241	6424.327	319.021	147.919	102.348	82.479	114.817
88.025	335.700	2524.133	1390.385	6440.133	317.849	146.697	102.590	81.995	113.913
89.026	338.700	2529.928	1394.843	6442.247	316.270	147.601	103.138	81.919	113.569
90.027	341.700	2507.563	1398.766	6421.346	315.938	145.958	103.877	82.365	113.875
91.032	345.000	2537.532	1392.359	6429.396	316.130	147.639	103.902	82.276	113.569
92.034	348.000	2537.366	1417.985	6447.240	315.569	147.524	102.692	82.327	112.869
93.047	350.900	2580.224	1437.446	6392.027	312.423	148.047	101.788	82.110	111.136
94.080	353.900	2592.821	1440.057	6414.239	308.590	144.137	101.418	82.772	112.435
95.112	357.200	2586.503	1463.735	6558.301	304.310	146.047	100.450	82.250	112.053
96.110	360.200	2641.410	1449.788	6438.541	300.031	144.710	99.686	82.467	111.034
97.113	363.100	2610.843	1475.834	6466.013	294.949	145.092	99.088	82.683	110.792
98.118	366.100	2652.491	1475.134	6504.872	292.784	144.111	95.763	82.327	109.417
99.115	369.100	2573.729	1491.869	6443.113	290.325	146.085	94.528	82.314	109.952
100.113	372.000	2622.471	1477.821	6489.665	285.804	142.519	93.624	82.747	109.086
101.111	375.000	2604.831	1483.820	6658.155	282.123	145.958	91.688	82.607	108.576
102.108	378.000	2632.431	1500.224	6569.993	278.621	144.137	90.083	81.753	109.748
103.109	380.900	2615.810	1513.496	6735.287	275.296	139.781	89.472	82.518	109.570
104.153	384.200	2587.535	1503.982	6647.151	274.341	143.525	88.491	81.843	109.060
105.153	387.200	2581.944	1517.037	6725.174	273.934	142.659	88.453	81.410	107.748
106.155	390.200	2550.383	1536.421	6754.073	271.488	141.042	88.402	81.677	107.596
107.153	393.100	2558.649	1550.712	6881.833	273.348	140.672	87.841	82.250	106.144
108.154	396.100	2525.891	1537.606	7021.310	272.176	140.583	87.663	82.059	104.577
109.152	399.100	2536.628	1560.302	7114.591	267.171	141.487	86.606	82.352	104.271
110.169	402.400	2577.690	1568.314	7235.473	266.355	139.564	87.026	81.702	103.087
111.163	405.300	2505.474	1542.943	7229.780	265.986	142.175	87.294	82.352	102.285
112.155	408.300	2552.064	1566.148	7539.619	265.540	140.583	86.491	81.919	101.457
113.190	411.300	2552.484	1578.847	7676.447	264.063	139.933	87.319	82.607	99.686
114.189	414.200	2568.201	1588.539	7841.269	262.853	141.742	86.249	82.505	100.629
115.189	417.200	2583.587	1610.662	8009.276	262.267	142.277	85.944	82.416	98.591
116.190	420.200	2589.484	1617.285	8137.799	266.789	140.914	86.848	82.467	97.419
117.212	423.400	2592.451	1618.966	8332.871	263.604	141.538	86.300	82.365	98.031
118.212	426.400	2612.371	1626.430	8463.903	259.822	140.991	85.587	82.887	97.763
119.214	429.400	2595.241	1656.845	8502.036	265.973	142.226	86.912	82.161	95.471
120.214	432.300	2553.733	1634.556	8640.265	265.502	141.296	86.237	82.721	95.598
121.212	435.300	2562.266	1651.062	8759.606	265.018	140.634	86.097	82.250	95.394
122.208	438.300	2558.267	1651.635	8904.763	267.553	140.570	86.479	82.301	95.356
123.211	441.200	2555.427	1660.385	9077.304	265.591	141.284	86.084	82.288	95.649
124.214	444.200	2541.034	1687.858	9230.459	266.687	140.914	86.402	81.626	94.834
125.215	447.200	2498.011	1681.974	9334.261	267.171	142.022	86.428	81.970	93.000
126.212	450.200	2520.236	1688.240	9465.103	275.284	141.436	87.370	82.594	93.866
127.214	453.500	2535.723	1690.392	9506.331	265.196	142.825	86.109	82.288	93.649
128.202	456.400	2577.741	1716.260	9870.912	274.902	142.506	86.237	82.747	92.643
129.201	459.400	2571.194	1719.444	9919.705	274.787	140.545	86.466	82.772	92.885
130.197	462.400	2616.485	1722.004	10101.951	270.902	144.748	86.249	82.276	92.719
131.243	465.400	2680.486	1743.847	10052.597	276.468	142.060	85.523	82.085	92.516
132.241	468.300	2758.114	1752.559	10192.214	277.423	142.595	87.205	82.505	92.949
133.289	471.600	2856.733	1773.065	10163.455	275.296	143.118	86.313	82.963	91.981
134.292	474.600	2913.015	1763.181	10321.425	283.753	143.028	86.377	82.454	92.936
135.292	477.600	2978.735	1776.593	10206.352	279.028	144.786	86.631	82.861	93.089
136.291	480.500	2984.263	1783.165	10153.686	275.411	140.430	86.466	82.556	92.235
137.333	483.800	2997.279	1802.741	9911.121	271.896	142.201	86.581	81.639	91.599
138.328	486.800	3018.422	1759.437	9686.654	268.088	144.850	85.918	82.174	91.357
139.325	489.800	3001.164	1812.471	9386.061	261.618	143.793	86.402	82.556	90.898
140.327	492.700	2955.185	1821.540	9083.315	260.968	146.989	86.631	81.893	91.955
141.363	495.700	2890.064	1813.783	8722.504	257.567	143.614	86.046	82.454	91.331
142.363	498.700	2835.998	1822.902	8401.227	250.868	145.945	85.562	82.365	91.204
143.364	501.600	2768.673	1837.715	8201.456	250.524	145.296	86.428	82.288	90.656
144.364	504.900	2731.368	1831.882	7815.797	241.252	143.742	86.453	82.798	91.026
145.369	507.900	2682.345	1841.841	7531.010	242.436	143.054	86.046	82.696	91.599
146.371	510.800	2596.858	1833.015	7283.706	239.507	145.423	86.504	83.040	91.191
147.398	513.800	2618.230	1843.879	7099.422	233.903	146.620	86.147	82.288	91.726
148.395	516.800	2622.344	1876.141	6928.232	232.094	147.104	86.428	82.556	91.242
149.394	519.800	2615.352	1871.849	6782.960	225.102	145.830	86.160	83.014	91.943
150.397	522.700	2613.619	1897.194	6659.327	226.630	145.270	86.440	82.607	90.771
151.397	525.700	2603.341	1892.685	6588.678	224.109	144.952	85.421	83.282	91.688
152.398	529.000	2538.971	1892.851	6530.230	226.885	145.856	86.963	82.543	91.000
153.397	532.000	2607.620	1915.216	6522.945	227.433	143.844	85.893	82.951	91.471
154.399	534.900	2601.367	1929.940	6535.834	224.771	144.761	86.466	82.327	90.261
155.399	537.900	2587.038	1944.879	6559.027	223.714	145.690	85.638	82.607	91.255
156.396	540.900	2604.882	1950.050	6539.490	224.822	146.888	86.733	83.422	90.121
157.395	543.900	2615.594	1978.860	6501.357	226.949	148.314	86.288	83.193	90.911
158.436	546.800	2622.573	1990.387	6524.435	227.267	146.455	85.956	83.091	90.669
159.436	550.100	2587.497	1980.363	6511.393	224.695	145.983	86.619	82.123	91.013
160.434	553.100	2588.630	1985.611	6458.613	229.509	144.277	86.797	82.046	89.701
161.434	556.000	2561.502	1996.271	6496.033	228.923	147.295	87.115	82.390	90.440
162.432	559.000	2572.786	1998.360	6527.326	228.757	147.040	86.937	82.237	89.790
163.434	562.000	2483.860	2030.277	6602.841	226.083	147.346	87.306	82.925	91.115
164.434	564.900	2499.603	2033.640	6509.457	227.356	150.008	86.772	81.881	90.427
165.434	567.900	2531.979	2060.705	6579.202	226.045	149.320	86.453	82.174	90.032
166.439	570.900	2476.601	2049.331	6576.858	227.102	150.976	86.224	82.327	90.733
167.457	573.800	2432.227	2061.685	6636.541	228.210	148.301	86.555	82.989	89.994
168.461	577.100	2446.785	2081.936	6614.431	226.223	147.524	85.791	82.976	90.261
169.463	580.100	2385.319	2078.434	6594.779	230.362	147.652	85.090	82.798	90.223
170.465	583.100	2398.908	2124.794	6588.117	232.566	149.015	85.714	82.352	89.421
171.461	586.000	2397.686	2108.046	6625.321	227.382	148.276	86.835	82.696	91.624
172.459	589.000	2408.384	2100.595	6644.298	228.172	150.008	85.727	82.530	89.892
173.458	592.000	2351.669	2109.969	6602.994	228.987	148.900	85.791	82.734	90.478
174.457	594.900	2413.797	2113.905	6713.699	225.484	151.384	85.409	82.836	89.841
175.460	597.900	2430.265	2137.989	6621.347	227.675	150.288	86.517	82.072	89.217
176.459	600.900	2405.926	2157.604	6635.777	227.114	152.402	86.912	83.282	90.223
177.458	603.800	2389.980	2169.843	6668.497	226.796	150.772	86.058	82.607	89.968
178.457	606.800	2422.140	2176.670	6642.680	227.535	151.307	86.224	82.798	90.924
179.458	610.100	2416.434	2194.514	6677.922	227.598	151.460	86.555	82.696	90.007
180.461	613.100	2401.354	2221.859	6718.781	228.019	152.084	86.593	82.989	89.816
181.461	616.100	2409.365	2210.880	6648.998	229.063	153.893	86.861	82.887	89.777
182.461	619.000	2393.890	2244.581	6662.587	228.439	153.027	86.071	82.683	89.395
183.460	622.000	2358.292	2222.776	6689.500	227.917	151.524	86.440	82.288	88.962
184.498	625.000	2368.405	2272.015	6769.790	230.553	152.683	87.230	82.772	90.083
185.499	628.300	2390.298	2273.951	6757.461	229.789	152.670	86.275	82.377	89.293
186.502	631.300	2369.194	2266.284	6767.752	232.031	154.262	87.166	81.983	89.790
187.501	634.200	2363.284	2302.544	6743.120	228.579	152.326	87.026	83.447	90.300
188.502	637.200	2336.270	2309.626	6744.712	229.178	152.708	85.740	82.721	90.045
189.499	640.100	2368.863	2317.280	6753.513	230.197	155.396	86.886	83.002	90.007
190.520	643.100	2353.414	2324.375	6804.026	231.139	156.172	86.033	82.607	89.726
191.520	646.100	2331.405	2347.682	6829.639	230.082	153.052	87.854	82.135	89.204
192.517	649.100	2374.352	2357.260	6862.193	233.737	155.179	86.071	83.256	90.019
193.514	652.000	2382.224	2360.189	6899.384	228.961	155.154	87.115	82.963	88.822
194.514	655.000	2398.361	2379.765	6917.355	232.298	154.950	87.727	82.734	89.663
195.515	658.300	2399.430	2416.548	6924.041	232.375	154.517	86.084	82.594	88.695
196.515	661.300	2374.047	2423.553	6903.052	232.426	154.644	87.115	82.709	89.395
197.512	664.200	2375.919	2423.286	6857.812	234.170	156.364	86.224	82.734	89.548
198.511	667.200	2339.531	2438.493	6866.536	230.884	155.625	86.937	82.696	89.446
199.509	670.100	2379.116	2489.910	6921.609	229.025	155.599	87.345	83.536	89.905
200.557	673.100	2367.793	2446.683	6896.365	233.546	155.434	87.039	82.963	89.472
201.554	676.000	2372.047	2461.890	6891.143	229.305	155.536	87.459	82.467	89.472
202.553	679.300	2378.696	2467.723	6879.451	230.706	158.885	86.504	83.116	88.593
203.550	682.300	2371.920	2492.891	6850.985	231.254	156.860	87.408	83.511	89.484
204.548	685.300	2331.176	2523.356	6943.897	229.305	160.350	87.447	81.995	89.051
205.548	688.200	2373.868	2549.733	6857.188	226.197	160.579	87.803	82.683	89.064
206.551	691.200	2380.593	2542.206	6841.458	230.872	159.318	87.001	82.530	89.191
207.551	694.200	2373.817	2546.524	6883.157	231.101	161.509	86.033	82.543	89.688
208.550	697.100	2369.092	2552.344	6870.854	232.502	158.707	86.657	82.696	89.574
209.549	700.100	2372.251	2575.983	6764.619	229.050	159.624	87.332	83.460	89.293
210.550	703.100	2374.365	2607.812	6934.065	230.655	161.827	87.217	82.836	89.433
211.553	706.000	2348.485	2619.007	6898.594	228.082	163.738	85.562	82.530	88.657
212.551	709.000	2311.116	2635.615	6767.485	229.140	160.133	86.746	83.345	89.790
213.551	712.300	2331.762	2623.821	6773.318	233.368	160.859	87.166	83.180	90.083
214.550	715.300	2336.169	2649.243	6770.771	227.395	157.981	86.810	83.435	89.828
215.552	718.200	2316.542	2655.217	6749.246	230.770	159.420	87.192	83.116	88.669
216.554	721.200	2280.243	2675.939	6729.709	229.076	161.802	86.899	81.881	90.503
217.554	724.200	2285.758	2688.624	6749.234	230.846	162.439	86.708	82.951	90.809
218.556	727.100	2271.544	2696.304	6731.339	231.903	159.968	86.937	82.569	90.707
219.555	730.100	2289.464	2710.646	6749.450	234.043	164.107	86.848	81.906	90.363
220.550	733.100	2262.450	2705.309	6741.222	236.476	161.445	87.064	83.116	90.656
221.547	736.000	2291.260	2723.102	6746.648	235.062	163.954	87.115	83.282	91.089
222.548	739.000	2288.598	2752.332	6742.343	233.343	162.655	87.892	82.492	90.108
223.546	742.000	2261.826	2755.402	6763.689	233.623	164.566	87.689	83.511	89.994
224.563	745.300	2289.604	2779.868	6716.654	231.993	161.496	87.141	83.205	89.892
225.573	748.200	2242.199	2815.989	6765.422	232.082	162.770	87.064	82.963	90.312
226.574	751.200	2279.631	2830.763	6842.350	234.043	165.228	87.077	82.619	90.389
227.577	754.200	2253.764	2845.397	6719.086	235.712	163.292	87.472	83.371	91.013
228.615	757.500	2285.809	2879.620	6808.445	234.553	165.623	87.014	82.912	90.172
229.639	760.400	2265.125	2892.599	6796.498	232.005	163.700	86.912	83.218	90.847
230.641	763.400	2269.328	2905.870	6789.251	237.189	164.095	87.014	82.925	91.459
231.635	766.400	2204.818	2896.305	6831.549	236.119	166.795	87.408	83.982	91.739
232.633	769.300	2274.779	2904.953	6835.306	236.794	167.788	87.243	82.352	91.382
233.652	772.300	2283.873	2952.524	6841.000	239.252	168.680	86.899	83.600	92.044
234.653	775.200	2286.802	2944.729	6904.465	237.864	168.107	87.115	82.530	92.325
235.656	778.500	2289.031	2977.130	6792.920	239.915	169.291	86.326	83.142	92.758
236.658	781.500	2235.079	2965.769	6904.300	242.411	169.125	87.103	82.237	92.987
237.656	784.500	2279.007	3011.175	6792.461	241.685	167.584	86.899	83.244	93.140
238.656	787.500	2276.664	3018.524	6839.382	246.487	170.845	87.943	83.294	92.248
239.656	790.400	2245.829	3017.645	6834.020	244.780	169.469	87.281	83.053	93.586
240.654	793.400	2270.971	3044.519	6861.442	242.513	169.851	87.931	83.078	94.019
241.654	796.400	2293.119	3052.747	6867.441	246.308	169.992	88.249	83.205	94.897
242.654	799.300	2210.842	3055.625	6846.362	245.111	168.883	87.434	82.989	94.592
243.654	802.300	2284.497	3082.384	6859.455	245.035	172.959	87.523	83.078	94.987
244.653	805.200	2295.527	3090.854	6772.210	248.015	172.004	88.122	83.142	94.579
