Tue, Oct 10, 2017	2:15 PM
 Notes: GUA_ 1.94e-09_30s_0.05L_101017
 waiting time: 50.000
 time(s)	 temp (K)	 MS1=30.937	 MS2=17.798	 MS3=125.586	 MS4=1.994	 MS5=28.936	 MS6=95.042	 MS7=78.871	 MS8=27.907
0.000	105.000	105.099	104.131	104.501	102.590	103.202	103.520	103.507	102.807
1.863	104.800	103.571	102.985	104.144	103.036	103.533	102.998	103.469	102.896
3.575	104.700	103.291	103.100	103.813	102.348	102.488	103.928	102.960	103.507
5.289	104.500	102.756	103.112	103.775	103.011	102.921	103.596	103.214	103.329
7.000	104.400	103.087	102.909	103.342	102.667	102.667	103.036	103.023	103.227
8.712	104.300	102.374	102.781	104.029	102.654	103.202	103.724	103.711	102.297
