Fri, Sep 15, 2017	1:14 PM
 Notes: HOAc_30s_3.9e-09_91517
 waiting time: 25.000
 time(s)	 temp (K)	 MS1=1.879	 MS2=13.596	 MS3=14.613	 MS4=17.526	 MS5=27.740	 MS6=42.664	 MS7=43.686	 MS8=60.088
0.000	100.400	6805.490	1191.493	1002.548	2420.458	8507.246	1166.428	4253.514	511.494
1.239	100.400	4875.383	1164.110	1013.068	2445.307	8798.898	1184.895	4254.813	505.062
1.994	100.400	4956.706	1177.954	1018.150	2400.832	8783.690	1178.387	4355.240	512.398
2.747	100.400	4849.006	1182.781	1016.392	2445.664	8791.994	1162.097	4285.800	517.671
3.495	100.400	4930.099	1178.056	1010.941	2391.954	8884.563	1174.885	4299.543	513.188
4.250	100.400	4796.634	1168.504	1026.518	2448.822	8823.581	1183.482	4310.700	519.161
5.005	100.400	4827.405	1189.977	1028.556	2411.148	8899.694	1197.071	4305.708	516.105
5.762	100.400	4912.192	1161.333	1026.021	2386.732	8925.663	1184.501	4297.607	519.123
6.519	100.400	4831.213	1181.902	1025.588	2405.722	8899.465	1194.231	4346.872	521.390
7.277	100.400	4807.396	1178.476	1028.759	2398.335	8824.230	1191.557	4275.815	527.325
8.032	100.400	4782.191	1185.137	1024.926	2399.023	8851.397	1180.871	4302.039	534.496
8.782	100.400	4818.846	1176.056	1033.701	2449.472	8794.835	1199.109	4321.628	517.365
9.533	100.400	4848.560	1178.514	1038.745	2400.093	8795.115	1198.218	4350.234	517.697
10.283	100.400	4729.513	1163.078	1034.771	2459.547	8794.567	1191.748	4300.091	534.012
11.033	100.400	4841.492	1180.489	1051.914	2458.795	8948.627	1210.827	4351.138	536.126
11.786	100.400	4792.405	1168.784	1056.856	2440.633	8998.057	1213.158	4429.442	535.426
12.541	100.500	4962.310	1194.562	1079.692	2428.202	8913.589	1229.498	4581.210	546.201
13.298	100.500	4947.090	1203.936	1086.188	2473.569	9405.535	1253.647	4885.853	583.710
14.059	100.700	5041.212	1240.528	1140.407	2458.515	9840.726	1306.427	5324.534	606.546
14.815	101.000	4960.641	1321.736	1177.636	2523.993	11402.139	1412.343	6139.374	664.102
15.572	101.700	5056.254	1401.173	1259.862	2440.455	11610.074	1425.156	6865.008	714.258
16.328	102.700	5145.715	1372.962	1340.611	2525.993	11000.558	1403.491	7091.526	740.788
17.088	104.200	5153.064	1460.843	1501.040	2527.890	11286.211	1751.056	7127.570	828.058
17.845	106.300	5166.590	1724.424	1816.980	2600.730	11667.222	1834.161	6933.454	799.249
18.602	108.900	5224.795	1684.317	1836.237	2581.638	11210.646	1669.696	6723.468	741.387
19.362	111.800	5166.220	1589.851	1815.235	2590.898	10847.097	1519.380	6598.447	733.325
20.120	115.000	5218.554	1541.618	1774.084	2471.888	10752.401	1469.135	6380.055	700.923
20.877	117.800	5088.069	1525.430	1745.414	2572.111	10412.975	1419.845	6301.764	693.803
21.631	121.000	5086.019	1479.528	1735.403	2516.542	10307.670	1442.286	6156.326	704.795
22.386	124.200	5093.393	1485.208	1741.567	2550.472	10254.814	1470.052	6177.023	713.469
23.142	127.300	5085.064	1496.709	1741.746	2541.315	10234.779	1525.366	6267.808	742.508
23.897	130.200	5100.322	1504.937	1786.807	2549.377	10316.777	1637.256	6212.927	753.881
24.657	133.200	5127.705	1514.056	1827.475	2564.660	10268.327	1758.660	6143.921	761.485
25.425	136.100	5223.407	1539.185	1834.340	2621.147	10387.719	1897.500	6130.828	766.962
26.184	139.000	5048.574	1545.273	1899.334	2624.789	10248.764	2111.625	6171.495	760.504
26.939	141.900	5091.750	1587.240	1969.792	2805.927	10431.124	2333.800	6115.022	752.327
27.697	144.400	5115.593	1608.650	2029.781	3098.802	10479.281	2595.661	5933.566	779.252
28.456	147.200	5187.567	1629.461	1964.583	2892.166	9735.956	2695.719	5215.650	757.065
29.214	150.000	4929.921	1639.485	1905.562	3792.862	10064.073	3007.851	5212.479	811.552
29.973	152.700	5043.708	1676.446	1931.570	4035.224	10259.654	3403.801	5159.686	840.591
30.732	155.400	5091.890	1735.938	2123.967	4176.127	10123.055	4063.180	5248.268	965.561
31.488	158.000	5213.434	1905.893	2520.376	4707.785	10458.100	5250.548	5613.308	1114.896
32.249	160.600	5070.570	2155.145	3045.219	5276.021	10546.287	6910.872	6070.878	1376.643
33.007	163.200	5286.771	2508.709	3845.094	6120.906	11179.060	9581.017	6651.150	1803.084
33.762	165.700	5317.784	3080.168	5165.787	6894.862	11669.922	14004.131	7687.770	2593.496
34.521	168.300	5575.786	3983.208	7573.893	7798.169	12708.503	22037.277	9371.465	4032.307
35.278	170.400	5593.464	5517.683	11270.698	8879.430	13792.541	34514.183	11823.486	6350.876
36.037	172.900	5908.182	7644.249	16433.074	9928.391	15403.332	49839.086	15226.881	9936.211
36.796	175.400	6113.455	10266.659	22909.622	11694.262	17427.804	67727.658	18846.720	13797.113
37.553	177.800	6439.267	12763.525	27636.335	12169.255	18999.813	71206.046	21005.319	15510.535
38.312	180.200	6624.021	12779.853	26048.329	11664.497	19318.733	53580.864	19527.942	12554.303
39.068	182.700	6512.718	10698.233	18921.751	9860.124	18266.792	35247.369	17532.790	9469.408
39.826	185.100	6352.226	9019.378	14502.865	8472.513	17403.350	25248.238	15625.150	7417.502
40.582	187.500	6128.179	7710.199	11498.604	7617.490	16391.872	17789.850	14389.536	5697.992
41.336	189.500	5942.265	6310.883	8479.773	6756.914	15661.385	10678.352	12589.010	4114.623
42.094	191.900	5918.371	5315.288	6700.784	6051.060	14844.941	8795.701	11884.290	3623.454
42.869	194.200	5789.555	4971.187	6129.949	5859.338	14561.695	7928.565	11189.389	3352.079
43.628	196.600	5772.412	4623.482	5769.355	5444.983	14107.653	7661.291	10950.963	3277.405
44.386	198.900	5679.053	4526.647	5591.605	5356.388	14004.743	7338.307	10679.485	3199.534
45.143	201.300	5781.493	4420.909	5478.709	5205.487	13629.018	7440.160	10419.929	3228.994
45.906	203.700	5581.148	4396.531	5457.579	4977.492	13501.806	7270.014	10187.858	3224.561
46.662	206.000	5645.748	4283.482	5424.095	5100.679	13603.481	7422.533	10166.423	3199.865
47.417	208.300	5627.101	4242.458	5353.064	4926.953	13464.705	7163.104	10071.371	3124.249
48.174	210.700	5662.904	4153.252	5300.131	4871.805	13288.993	7191.838	9875.191	3111.487
48.948	213.000	5621.599	4182.584	5209.384	4789.744	13266.844	7101.957	9799.524	3121.141
49.709	215.300	5616.377	4119.182	5262.482	4762.755	13207.556	7265.977	9785.769	3194.542
50.463	217.300	5588.204	4130.594	5377.492	4716.063	13194.501	7669.098	9879.445	3350.143
51.217	219.600	5637.201	4168.409	5561.954	4810.479	13159.883	7898.940	9873.230	3505.744
51.976	222.000	5646.894	4293.888	5745.640	4667.244	13116.605	8229.285	9969.263	3576.278
52.731	224.300	5685.409	4308.191	5784.524	4785.171	13245.434	8118.465	9951.648	3564.166
53.487	226.600	5855.033	4281.648	5700.132	4661.449	13172.951	7875.085	9820.832	3347.417
54.245	228.900	5753.116	4146.031	5433.367	4560.513	12896.226	7123.507	9650.890	3102.190
55.004	231.200	5787.555	3924.416	5015.293	4457.411	12802.498	6499.472	9425.658	2754.637
55.763	233.500	5597.502	3719.321	4578.662	4392.239	12566.645	5707.736	9132.962	2467.787
56.518	235.900	5658.038	3597.102	4179.477	4137.854	12571.472	5282.173	8974.469	2274.970
57.275	237.800	5484.020	3373.234	3932.466	4148.603	12267.377	4820.680	8649.028	2097.564
58.032	240.100	5683.893	3277.761	3758.129	4015.406	12121.137	4506.485	8595.789	1991.215
58.792	242.500	5430.183	3079.442	3605.598	3949.673	12093.244	4301.848	8400.450	1893.360
59.545	244.800	5629.789	3095.083	3487.251	3926.021	11900.821	4216.794	8276.614	1818.012
60.306	247.100	5544.824	2994.465	3398.554	3845.973	11922.181	4058.901	8119.484	1764.468
61.064	249.400	5621.497	2955.950	3342.068	3824.830	11716.703	3926.098	8048.810	1723.227
61.822	251.700	5536.571	2902.278	3260.988	3832.867	11596.038	3773.082	7940.716	1686.775
62.579	254.000	5649.276	2841.462	3224.714	3664.033	11632.184	3734.338	7934.831	1650.655
63.339	256.300	5569.520	2789.153	3195.624	3763.007	11211.219	3619.722	7691.705	1589.061
64.095	258.300	5563.496	2765.909	3116.442	3666.363	11341.513	3570.955	7675.759	1584.705
64.852	260.600	5585.988	2728.337	3072.030	3626.193	11446.512	3500.777	7585.738	1559.513
65.608	262.900	5671.208	2662.362	3023.096	3611.291	11232.451	3476.221	7552.432	1544.458
66.366	265.300	5533.629	2647.970	2952.269	3653.347	11362.057	3386.340	7482.687	1499.970
67.126	267.600	5792.497	2615.186	2898.559	3539.062	11193.859	3351.798	7392.373	1482.381
67.884	269.900	5664.037	2615.364	2829.719	3595.676	11142.035	3275.635	7341.364	1446.464
68.644	272.200	5575.239	2546.919	2795.496	3457.078	11107.990	3279.506	7319.050	1440.809
69.401	274.500	5730.165	2540.359	2696.648	3484.831	10932.571	3172.699	7161.410	1049.532
70.158	276.800	3650.787	1811.057	2214.841	3241.883	10482.592	3092.675	6778.209	1335.160
70.915	278.800	5629.980	2482.268	2545.518	3324.632	10836.194	3013.034	6875.757	1325.035
71.675	281.100	5753.867	2425.922	2514.835	3459.740	10658.215	3052.517	6933.950	1335.338
72.434	283.400	5755.370	2432.762	2496.266	3325.752	10669.844	3003.508	7038.682	1314.132
73.192	285.700	5763.522	2404.143	2458.630	3438.304	10748.848	2983.970	6903.905	1295.168
73.954	288.000	5893.382	2376.428	2424.916	3301.362	10952.325	2959.248	6943.312	1304.542
74.710	290.300	5800.763	2342.167	2373.932	3441.221	10648.587	2946.015	6844.031	1297.588
75.466	292.600	5859.503	2341.620	2376.225	3392.746	10523.693	2878.678	6859.060	1270.637
76.222	295.000	5927.542	2300.048	2362.011	3344.131	10726.890	2863.165	6784.539	1276.636
76.981	297.300	5917.034	2305.079	2314.058	3333.496	10724.190	2873.889	6813.604	1255.659
77.738	299.200	5948.608	2231.144	2263.342	3371.260	10420.872	2813.964	6726.766	1250.348
78.494	301.600	5971.571	2285.821	2301.767	3292.472	10383.477	2825.337	6706.923	1232.568
79.249	303.900	5736.800	2260.463	2261.215	3325.676	10582.484	2742.499	6601.274	1228.123
80.008	306.200	5922.154	2240.760	2252.758	3299.706	10608.811	2813.391	6694.543	1211.833
80.767	308.500	5788.116	2219.095	2246.962	3312.570	10489.750	2699.412	6575.266	1199.874
81.525	310.800	5778.067	2224.292	2202.398	3265.675	10535.882	2728.464	6532.345	1205.911
82.283	313.100	5930.356	2179.981	2201.379	3302.317	10482.885	2673.939	6494.657	1170.172
83.042	315.400	5984.448	2186.910	2168.328	3217.009	10358.399	2655.981	6533.045	1185.711
83.800	317.700	5750.212	2152.496	2154.318	3325.867	10434.232	2617.491	6433.000	1158.582
84.547	319.700	5824.134	2170.187	2141.887	3235.578	10152.999	2633.425	6486.391	1164.275
85.301	322.000	5740.456	2141.517	2131.481	3222.282	10458.610	2567.029	6401.821	1134.727
86.055	324.300	5863.885	2139.887	2112.988	3232.432	10387.069	2617.071	6453.417	1143.910
86.815	326.600	5816.569	2128.335	2095.908	3260.898	10400.315	2541.888	6328.192	1120.933
87.572	328.900	5868.266	2110.288	2096.418	3160.115	10337.270	2569.513	6330.166	1122.410
88.329	331.200	5620.619	2105.817	2081.554	3248.735	10350.974	2507.397	6258.511	1120.755
89.087	333.500	5747.639	2083.554	2062.908	3190.963	10364.666	2531.482	6326.867	1113.648
89.846	335.800	5705.749	2084.993	2054.782	3168.445	10421.929	2483.122	6233.331	1082.354
90.606	337.800	5736.737	2051.713	2027.654	3166.763	10190.355	2494.177	6289.015	1113.317
91.362	340.100	5735.501	2045.981	2032.914	3207.061	10353.177	2452.911	6289.193	1084.278
92.122	342.400	5719.683	2041.829	2009.644	3110.328	10363.901	2459.929	6226.568	1086.175
92.880	344.800	5706.220	2034.748	1992.539	3185.180	10331.704	2421.044	6250.474	1074.585
93.637	347.100	5803.603	2030.889	1993.698	3156.561	10186.623	2431.794	6178.895	1070.993
94.396	349.400	5788.956	2043.345	1963.309	3166.445	10351.598	2388.897	6216.557	1067.376
95.155	351.700	5795.630	2012.586	1956.151	3188.861	10243.962	2407.913	6198.611	1058.575
95.913	354.000	5825.140	2009.924	1967.104	3078.563	10230.704	2368.163	6186.805	1054.411
96.673	356.300	5758.159	2011.122	1962.812	3187.193	10054.813	2375.078	6167.292	1048.781
97.430	358.300	5846.283	1969.486	1929.417	3128.630	10192.762	2324.795	6197.185	1032.007
98.190	360.600	5735.896	1978.465	1924.539	3097.006	10190.278	2342.575	6094.172	1032.873
98.948	362.900	5837.164	1965.856	1907.638	3075.978	10162.640	2329.049	6213.921	1040.515
99.704	365.200	5755.026	1956.138	1903.868	3158.370	9923.335	2325.623	6158.861	1031.829
100.459	367.500	5758.198	1965.461	1906.810	3038.749	10232.805	2309.804	6156.696	1012.393
101.216	369.800	5671.603	1950.496	1873.632	3122.670	10132.506	2298.672	6135.668	1017.959
101.974	372.100	5793.299	1973.014	1889.438	3096.917	10153.253	2296.966	6115.213	1008.610
102.733	374.400	5850.550	1943.529	1882.649	3056.045	9941.102	2279.007	6109.240	1009.336
103.492	376.800	5875.882	1943.911	1864.869	3076.411	10315.605	2272.779	6012.506	1009.234
104.250	378.700	5719.504	1920.413	1862.296	3122.453	10144.083	2250.974	6042.195	991.467
105.009	381.100	5875.424	1929.494	1863.124	3037.679	10139.740	2254.566	6050.690	990.232
105.767	383.400	5681.180	1927.010	1845.038	3112.175	10125.946	2226.368	5999.744	989.595
106.527	385.700	5825.026	1924.896	1827.997	2998.655	10224.921	2243.931	6025.306	995.224
107.286	388.000	5707.952	1907.549	1841.230	3098.318	10278.211	2221.311	5943.679	975.190
108.042	390.300	5853.657	1921.126	1823.335	3049.754	10173.428	2227.718	5964.261	979.673
108.804	392.600	5778.283	1900.162	1829.360	3042.672	10237.543	2215.936	5851.097	965.192
109.564	394.900	5762.630	1879.541	1830.162	3044.022	10145.178	2235.436	5879.652	975.139
110.322	397.200	5587.771	1886.024	1792.653	3058.109	10193.157	2195.749	5802.151	949.933
111.079	399.500	5725.911	1867.658	1794.653	2967.145	10310.243	2218.255	5959.701	969.777
111.839	401.500	5631.839	1875.402	1789.762	3086.651	10309.020	2191.444	5841.379	957.766
112.598	403.800	5725.338	1870.448	1784.298	3029.617	10366.360	2201.914	5804.304	956.047
113.352	406.100	5493.216	1880.255	1784.209	3028.496	10507.378	2180.949	5793.962	947.857
114.108	408.400	5649.632	1845.077	1770.645	3045.041	10441.798	2179.256	5803.896	959.753
114.874	410.700	5679.818	1860.526	1769.575	3056.822	10531.309	2164.214	5783.238	935.681
115.633	413.000	5782.906	1822.266	1770.925	3023.848	10484.388	2184.796	5749.244	941.273
116.391	415.300	5616.174	1855.189	1763.512	3042.634	10647.109	2179.345	5727.057	938.241
117.147	417.600	5765.114	1839.371	1735.237	3014.002	10612.721	2179.128	5726.573	930.077
117.906	419.900	5725.401	1836.378	1750.891	2979.385	10480.453	2179.765	5732.878	928.664
118.663	422.200	5563.241	1817.744	1761.258	3078.793	10723.592	2184.579	5711.493	924.983
119.421	424.200	5674.303	1845.764	1753.693	3049.843	10668.838	2149.108	5734.431	928.154
120.179	426.500	5662.993	1821.833	1752.330	3002.934	10797.794	2161.781	5687.676	924.970
120.938	428.800	5664.776	1840.046	1731.353	3039.679	10643.772	2164.761	5688.529	924.040
121.696	431.100	5637.189	1827.946	1739.453	3019.263	10785.835	2127.163	5668.559	922.499
122.453	433.400	5536.418	1816.904	1748.076	3030.139	10744.709	2151.375	5723.669	912.883
123.208	435.700	5541.665	1800.486	1679.885	3049.193	10673.181	2123.712	5614.123	913.240
123.966	438.000	5589.147	1813.541	1721.367	2987.230	10741.817	2144.854	5626.146	886.086
124.726	440.300	5587.860	1816.165	1714.286	3085.581	10800.609	2115.573	5601.119	906.502
125.486	442.600	5607.411	1793.354	1720.769	2957.516	10831.673	2120.884	5607.322	901.586
126.246	444.600	5590.191	1800.499	1706.135	3050.110	10681.026	2091.960	5578.461	895.600
127.005	446.900	5586.281	1807.020	1702.785	2971.666	10557.508	2130.857	5684.403	892.518
127.766	449.300	5373.251	1811.363	1689.450	3069.317	10578.956	2105.906	5594.611	889.907
128.523	451.600	5521.669	1797.200	1695.092	3037.628	10627.317	2112.313	5605.679	893.473
129.284	453.900	5520.153	1783.126	1691.335	3049.855	10473.995	2081.873	5538.800	884.264
130.042	456.200	5491.471	1788.590	1691.857	3045.270	10553.853	2098.430	5530.967	892.810
130.800	458.500	5506.615	1788.960	1673.504	3108.532	10622.400	2071.760	5539.233	882.596
131.559	460.800	5523.834	1801.174	1657.685	3000.604	10519.617	2098.825	5543.627	872.318
132.317	463.100	5316.065	1769.371	1655.303	3099.298	10492.514	2052.439	5530.992	875.005
133.074	465.400	5553.892	1780.808	1676.510	3051.142	10372.651	2067.315	5530.381	883.526
133.829	467.400	5455.350	1793.570	1673.071	3027.376	10504.958	2055.241	5480.263	874.916
134.583	469.700	5468.507	1764.952	1673.733	3033.718	10311.975	2038.887	5507.748	878.584
135.341	472.000	5476.824	1799.429	1671.810	3084.843	10365.341	2033.894	5499.711	858.906
136.101	474.300	5492.146	1784.324	1662.347	3077.175	10348.159	2064.869	5492.630	869.172
136.856	476.700	5366.042	1783.801	1660.500	3103.909	10419.623	2024.813	5494.540	868.382
137.629	479.000	5487.204	1766.977	1661.086	3048.977	10267.143	2032.735	5421.854	874.317
138.386	481.300	5423.560	1781.280	1667.874	3093.771	10284.961	2037.881	5490.949	859.912
139.147	483.600	5550.415	1787.126	1657.558	3100.699	10234.907	2046.478	5385.593	873.948
139.900	485.900	5334.482	1775.039	1641.344	3115.041	10294.717	2030.214	5386.497	853.340
140.672	488.200	5386.230	1763.003	1635.282	3131.598	10187.298	2031.347	5393.579	858.078
141.427	490.500	5482.734	1824.125	1656.119	3116.352	9918.877	2002.384	5404.774	856.715
142.187	492.500	5368.602	1779.764	1650.718	3115.690	9906.294	2043.447	5417.459	861.109
142.941	494.800	5503.864	1784.833	1658.258	3128.248	9993.360	2007.148	5392.241	859.721
143.698	497.100	5448.320	1795.252	1636.059	3102.699	9985.043	1990.718	5484.275	857.314
144.458	499.400	5432.858	1815.159	1645.102	3125.281	10175.657	2031.653	5432.845	848.488
145.211	501.700	5441.608	1772.275	1652.463	3195.076	10004.288	2006.282	5360.528	851.392
145.973	504.000	5441.340	1800.970	1649.406	3086.231	10187.629	2023.756	5380.715	849.698
146.729	506.300	5469.959	1794.589	1620.813	3184.187	9872.427	1979.242	5376.079	859.008
147.486	508.600	5495.114	1807.109	1634.658	3128.312	10068.174	2018.114	5401.985	850.627
148.242	510.600	5401.781	1797.939	1653.571	3238.266	9975.312	1993.189	5338.965	840.031
148.996	512.900	5484.848	1813.070	1637.256	3167.489	10061.666	2014.688	5391.655	851.124
149.755	515.200	5395.655	1796.691	1637.078	3184.926	10045.108	1974.644	5369.991	854.117
150.514	517.600	5517.224	1807.886	1649.343	3211.468	9984.317	2016.203	5446.116	842.998
151.277	519.900	5365.648	1808.472	1657.443	3174.978	10045.274	1984.515	5334.711	846.577
152.032	522.200	5441.977	1819.871	1630.480	3213.009	10008.656	1997.532	5339.207	857.416
152.790	524.500	5430.018	1807.746	1605.478	3185.359	9996.251	1985.598	5320.191	846.947
153.541	526.800	5421.917	1817.795	1646.337	3239.425	9733.740	2007.645	5434.526	854.576
154.289	528.800	5226.795	1825.386	1655.851	3289.976	9858.927	1974.568	5356.006	846.119
155.046	531.100	5404.774	1837.422	1661.162	3238.342	9981.235	1995.749	5392.916	846.794
155.804	533.400	5406.341	1820.559	1643.560	3305.909	9999.881	1990.718	5318.637	849.761
156.560	535.700	5491.700	1841.701	1655.571	3265.942	9834.753	2016.420	5383.950	858.040
157.320	538.000	5385.644	1846.567	1671.071	3262.860	9923.730	1981.178	5316.485	844.488
158.080	540.300	5330.419	1831.767	1646.490	3282.449	9997.588	2013.351	5313.479	858.053
158.840	542.600	5439.290	1854.234	1639.230	3290.230	9970.689	1999.646	5269.233	846.513
159.599	544.900	5433.431	1834.200	1653.724	3291.428	9831.569	2012.039	5341.372	860.269
160.356	547.200	5461.426	1861.800	1632.289	3317.079	9950.158	1983.611	5280.517	845.380
161.114	549.200	5437.494	1858.348	1648.400	3300.178	9892.627	2015.923	5261.973	847.953
161.873	551.500	5375.684	1877.427	1664.321	3279.392	9954.858	1983.878	5328.266	835.509
162.633	553.800	5416.135	1871.874	1649.852	3293.746	9845.452	2017.248	5307.429	850.067
163.394	556.100	5345.397	1876.790	1664.983	3319.282	9897.251	2002.321	5302.653	855.887
164.145	558.400	5414.110	1875.135	1666.473	3400.897	9893.073	1997.494	5256.891	853.862
164.903	560.700	5397.960	1929.608	1660.513	3305.158	10118.636	2012.153	5275.410	854.920
165.660	563.100	5432.055	1885.400	1633.944	3427.173	9775.414	2019.935	5271.640	853.073
166.420	565.400	5401.946	1924.310	1672.612	3379.386	9994.735	1996.245	5261.973	842.119
167.181	567.700	5381.428	1896.481	1687.145	3307.921	10004.110	2018.955	5273.716	854.181
167.938	570.000	5518.676	1925.405	1637.447	3387.142	9917.412	2023.209	5329.922	854.410
168.699	572.000	5454.472	1918.413	1679.337	3422.307	9900.206	2009.288	5155.292	843.635
169.452	574.300	5282.886	1930.576	1659.150	3407.317	10038.511	2024.176	5292.821	846.475
170.207	576.600	5409.958	1928.755	1661.659	3490.931	9873.064	1994.564	5259.871	855.798
170.970	578.900	5470.774	1953.349	1670.345	3335.381	9936.377	2028.685	5278.250	852.996
171.729	581.200	5329.540	1949.987	1681.833	3458.721	9846.127	2025.488	5229.508	862.791
172.489	583.500	5372.411	1974.339	1677.962	3365.197	10021.036	2031.424	5219.191	847.367
173.244	585.800	5265.514	1963.169	1689.246	3466.223	9850.648	2019.375	5216.555	853.850
174.000	588.100	5409.754	1986.056	1661.850	3373.718	9922.978	2056.005	5270.710	864.599
174.754	590.400	5416.402	1972.976	1693.640	3484.028	9811.063	2024.087	5212.797	859.084
175.511	592.400	5406.150	1996.118	1671.530	3495.491	9987.399	2049.331	5264.648	854.970
176.273	594.700	5308.181	1993.736	1664.372	3443.514	9989.386	2028.176	5163.023	853.442
177.028	597.000	5311.301	1983.267	1668.779	3425.390	9751.762	2042.250	5250.485	863.606
177.785	599.300	5324.229	2018.165	1684.432	3538.133	9906.077	2020.177	5191.999	854.550
178.543	601.600	5439.901	2025.361	1678.700	3495.364	9832.626	2014.637	5254.306	863.899
179.302	603.900	5346.339	2011.644	1680.713	3535.445	9885.775	2032.366	5207.818	855.773
180.059	606.300	5382.536	2024.826	1671.988	3496.026	9781.196	2040.288	5200.914	867.847
180.814	608.600	5322.305	2000.054	1677.771	3537.967	9923.004	2045.294	5161.457	860.625
181.571	610.600	5437.277	2019.948	1690.150	3491.122	9753.469	2039.397	5203.016	854.767
182.329	612.800	5310.015	2011.224	1694.608	3502.394	10034.066	2026.163	5195.947	854.537
183.086	615.200	5312.435	2035.015	1670.485	3525.664	9742.821	2052.910	5243.480	866.701
183.842	617.500	5366.768	2037.333	1678.598	3607.266	9893.825	2039.027	5169.723	849.137
184.602	619.800	5396.635	2014.764	1686.329	3503.757	9847.120	2052.082	5143.002	864.599
185.359	622.100	5195.820	2014.217	1685.718	3593.154	9901.403	2021.642	5123.566	852.614
186.115	624.400	5398.877	2025.692	1685.476	3509.081	9810.363	2044.351	5167.532	854.295
186.884	626.700	5300.704	2030.608	1684.470	3556.906	9973.822	2040.314	5122.445	852.500
187.638	629.000	5271.691	2016.293	1667.760	3607.381	9732.416	2026.724	5115.020	853.608
188.397	631.300	5372.449	2013.580	1678.509	3611.902	9888.603	2032.251	5149.778	889.524
189.157	633.300	5356.184	2005.632	1670.969	3615.672	9693.264	2041.307	5142.900	852.984
189.916	635.600	5453.529	2012.574	1676.204	3604.197	9743.433	2025.297	5089.916	848.997
190.696	637.900	5289.547	1981.064	1647.279	3662.326	9806.147	2016.700	5150.045	853.149
191.454	640.200	5348.339	1975.982	1691.895	3607.674	9829.213	2031.653	5168.398	852.780
192.209	642.500	5399.756	1974.785	1664.843	3611.507	9522.659	2007.797	5039.633	844.590
192.969	644.800	5284.109	1959.641	1667.263	3603.573	9827.455	2047.102	5140.353	847.736
193.728	647.100	5352.720	1980.401	1652.680	3651.080	9693.951	2013.542	5120.051	859.683
194.487	649.400	5345.333	1971.791	1649.012	3552.079	9848.941	2034.022	5200.863	840.718
195.245	651.700	5332.418	1947.057	1671.148	3716.723	9644.903	2008.396	5090.540	844.539
196.006	654.000	5295.381	1938.702	1654.425	3652.302	9857.335	2034.964	5086.961	843.839
196.764	656.400	5209.002	1899.996	1670.549	3670.694	9793.805	2010.014	5019.051	847.469
197.524	658.700	5158.808	1900.773	1662.767	3645.425	9787.017	2036.034	5075.027	848.309
198.281	660.700	5193.998	1895.093	1657.061	3755.047	9659.767	2025.310	5053.414	849.621
199.039	663.000	5357.394	1923.380	1672.141	3621.748	9721.335	2030.838	5082.453	859.033
199.807	665.300	5217.968	1892.380	1673.529	3708.852	9754.373	2018.674	4977.695	844.106
200.568	667.600	5222.617	1868.270	1679.426	3718.162	9660.378	2053.610	5050.637	851.812
201.327	669.900	5142.798	1866.092	1658.105	3696.842	9612.820	2035.639	5004.060	844.654
202.086	672.200	5291.674	1883.159	1641.153	3737.853	9595.639	2057.240	5005.461	853.213
202.844	674.500	5206.799	1856.616	1654.335	3709.336	9871.116	2039.753	4935.016	838.464
203.607	676.800	5139.894	1867.824	1663.518	3726.989	9768.523	2037.231	5008.785	848.309
204.365	679.100	5104.614	1847.063	1671.249	3782.138	9727.346	2028.405	5044.740	849.328
205.124	681.400	5220.567	1853.776	1663.493	3703.808	9733.931	2052.388	5022.184	852.410
205.884	683.700	5303.405	1853.928	1671.606	3811.712	9809.853	2042.963	5073.512	863.160
206.639	685.700	5240.194	1819.502	1664.537	3809.979	9749.457	2046.198	5003.219	844.476
207.400	688.000	5204.493	1816.878	1670.715	3784.825	9837.071	2018.853	5032.513	853.162
208.157	690.300	5186.815	1821.259	1658.526	3867.663	9689.481	2039.040	4973.327	852.398
208.915	692.600	5155.178	1797.786	1656.781	3713.055	9755.061	2039.715	5075.448	854.512
209.669	694.900	5022.095	1792.411	1642.873	3883.074	9592.302	2040.836	5027.062	855.493
210.420	697.200	5235.570	1813.668	1670.651	3766.586	9728.544	2040.084	5055.222	860.473
211.179	699.500	5212.505	1802.562	1667.161	3819.035	9717.781	2052.846	4917.312	860.065
211.933	701.500	5133.831	1805.441	1652.820	3811.737	9706.446	2037.945	5117.159	852.614
212.692	703.800	5185.210	1807.466	1656.233	3928.085	9704.663	2055.050	5036.168	847.252
213.452	706.100	5262.189	1805.708	1648.808	3775.540	9706.726	2052.553	5058.827	847.214
214.208	708.400	5054.751	1803.670	1663.608	3918.137	9853.896	2055.190	5025.228	850.131
214.964	710.800	5308.818	1794.220	1657.634	3779.858	9918.062	2062.348	5085.127	848.755
215.724	713.100	5119.872	1767.906	1657.341	3958.958	9722.086	2057.826	5010.823	848.590
216.482	715.400	5200.914	1786.807	1670.090	3823.557	9741.535	2042.122	5073.231	859.912
217.255	717.700	5175.531	1792.730	1662.831	3851.882	9788.392	2046.720	4983.057	846.539
218.009	720.000	5294.820	1776.529	1687.680	3883.240	9883.801	2051.649	5047.338	848.640
218.770	722.300	5142.161	1757.539	1651.954	3798.504	9873.166	2032.353	5015.675	846.794
219.523	724.600	5259.795	1772.313	1649.903	3873.254	9837.963	2055.827	5097.316	854.359
220.282	726.600	5196.546	1763.461	1649.139	3901.096	9899.238	2036.773	4991.604	848.246
221.036	728.900	5255.643	1752.292	1653.304	3919.118	9813.381	2061.673	5053.770	857.645
221.794	731.200	5117.987	1753.451	1660.946	3957.085	9880.209	2034.226	4967.646	849.532
222.554	733.500	5218.300	1760.507	1640.249	3782.520	9736.631	2042.262	5061.361	855.149
223.309	735.800	5075.091	1758.864	1658.679	3892.830	9797.282	2059.049	5016.949	840.158
224.056	738.100	5229.138	1745.732	1645.866	3897.352	9762.155	2064.042	5055.260	861.759
224.815	740.400	5158.158	1752.737	1646.299	3915.399	9951.062	2029.067	5019.547	844.157
225.573	742.400	5144.097	1748.725	1654.208	3943.483	9790.507	2074.919	5062.240	853.531
226.348	745.100	5184.344	1763.054	1667.250	4022.105	9823.558	2035.295	4992.941	852.882
227.108	747.000	5294.273	1735.097	1653.202	3890.410	9723.475	2060.603	5033.264	848.156
227.866	749.300	5154.515	1750.203	1651.661	4022.474	9853.743	2035.958	5029.915	860.447
228.624	751.700	5238.665	1735.110	1661.124	3926.989	9785.934	2048.439	4985.172	852.843
229.381	754.000	5139.117	1735.225	1660.436	3923.754	9834.778	2029.144	5067.653	836.796
230.136	756.300	5232.208	1716.031	1654.667	4010.184	9838.829	2065.888	5010.988	844.527
230.898	758.600	5222.388	1721.533	1656.857	3898.638	9969.645	2043.803	4998.545	844.998
231.655	760.900	5172.639	1723.953	1648.973	4030.104	9786.253	2060.119	5023.164	843.329
232.414	763.200	5197.221	1723.507	1658.029	3976.725	9889.520	2032.748	5048.485	834.605
233.175	765.500	5195.629	1721.253	1623.080	4002.211	9791.309	2051.407	4999.169	841.406
233.934	767.800	5116.650	1704.772	1638.708	3984.851	9938.848	2037.244	5095.546	848.182
234.692	769.800	5143.791	1730.805	1631.397	3985.322	9788.329	2047.280	4936.047	838.311
235.452	772.100	5177.518	1728.283	1648.961	3953.417	9976.178	2052.324	5043.326	834.159
236.212	774.400	5160.285	1705.141	1641.357	4084.781	9802.823	2036.238	4988.101	854.792
236.965	776.700	5150.720	1729.035	1655.329	3939.445	9757.888	2046.211	5040.053	848.411
237.722	779.000	5020.350	1702.505	1641.446	4065.842	9789.398	2016.000	4938.251	843.304
238.475	781.300	5162.272	1729.519	1624.660	4024.665	9947.458	2077.364	5035.850	838.298
239.223	783.600	5114.561	1697.614	1636.530	4118.813	9801.613	2042.300	5058.317	840.502
239.981	785.600	5212.403	1701.664	1623.297	4003.854	9903.899	2047.115	4964.004	834.745
240.736	787.900	5078.594	1709.319	1640.287	4060.213	9817.724	2023.310	4999.577	851.162
241.497	790.200	5198.889	1686.062	1651.763	3929.829	9994.264	2042.542	5021.763	837.280
242.248	792.500	4923.553	1675.822	1629.894	4024.461	9785.488	2029.666	4888.540	832.159
243.000	794.800	5158.897	1670.205	1638.822	4021.621	9918.011	2043.893	4971.327	830.020
243.754	797.100	5141.626	1681.451	1658.755	4034.128	9780.279	2051.496	4874.594	847.214
244.501	799.400	5056.292	1697.181	1615.578	4097.581	9968.358	2052.897	4985.783	843.444
245.256	801.400	5194.126	1694.736	1633.995	4125.092	9981.477	2039.422	4946.682	835.356
246.031	803.700	5160.769	1695.958	1643.637	4039.974	9997.703	2040.250	4968.410	836.095
246.787	806.000	5100.386	1677.159	1651.062	4157.430	9965.747	2041.969	4964.004	841.381
247.548	808.300	5206.926	1701.180	1637.256	4034.026	9743.369	2048.847	4961.813	840.553
248.301	810.600	4969.862	1675.045	1609.567	4181.947	9963.289	2036.531	5004.353	836.108
249.059	812.900	5220.337	1706.045	1638.784	4087.965	9872.415	2037.970	4980.905	838.171
249.810	815.200	5037.264	1700.798	1641.523	4066.746	10098.461	2054.922	4991.336	838.642
250.567	817.500	5204.748	1674.001	1627.105	4173.478	10012.388	2043.600	5119.236	843.673
251.329	819.900	5133.577	1705.039	1635.728	4191.080	10233.391	2040.568	4944.810	817.080
252.085	822.200	5141.970	1704.746	1648.833	4072.592	9895.659	2041.014	5027.189	846.743
252.846	824.100	5227.241	1669.810	1664.206	4251.514	10292.832	2051.280	5074.913	844.679
253.609	826.400	5199.921	1681.375	1613.579	4163.072	9856.609	2056.871	4935.117	831.459
254.369	828.700	5173.684	1679.082	1628.812	4083.100	10210.096	2055.572	4943.651	829.625
255.127	831.000	5131.704	1672.740	1663.582	4177.337	9994.481	2049.522	4934.162	834.248
255.885	833.300	5076.989	1694.506	1618.966	4102.714	10346.198	2045.102	4997.602	829.281
256.648	835.700	5062.635	1681.184	1618.877	4325.487	9998.455	2046.402	5048.816	839.177
257.410	838.000	5249.899	1691.271	1632.875	4155.736	10149.445	2041.052	4970.856	832.376
258.171	840.300	5137.754	1677.758	1625.729	4261.767	9960.564	2065.837	4979.300	836.706
258.929	842.600	5188.140	1676.764	1636.466	4193.525	10083.483	2046.376	5015.586	830.542
259.689	844.900	5160.680	1681.528	1611.987	4272.020	10196.175	2045.243	4977.288	831.714
260.449	847.200	5139.856	1691.424	1617.986	4122.405	10314.089	2055.241	5037.544	826.836
261.205	849.200	5088.260	1680.012	1629.932	4237.950	10109.440	2042.339	4927.972	831.981
261.964	851.500	5238.461	1684.126	1626.201	4254.367	10278.300	2074.969	5021.942	835.649
262.725	853.800	5132.736	1682.687	1633.677	4201.995	10230.551	2033.678	4969.404	836.923
263.486	856.100	5163.342	1673.236	1629.028	4224.640	10411.854	2070.321	4993.705	820.913
264.248	858.400	5161.737	1666.932	1638.759	4292.334	10200.404	2038.161	4881.191	819.703
265.001	860.700	5156.031	1667.378	1626.175	4214.846	10365.825	2063.863	5016.694	821.512
265.758	863.000	5091.929	1668.486	1648.337	4279.318	10264.952	2027.335	4907.785	821.486
266.517	865.300	5251.172	1668.613	1589.201	4203.485	10433.099	2080.701	4981.873	920.436
267.272	867.600	4941.982	1653.686	1631.346	4321.794	10185.629	2073.479	4935.487	821.767
268.016	869.600	5167.800	1642.427	1610.700	4301.657	10389.591	2068.321	4900.831	832.643
268.770	871.900	5134.303	1667.594	1622.061	4265.753	10427.711	2024.036	4965.698	823.639
269.548	874.200	5168.780	1663.595	1586.718	4288.271	10169.989	2049.764	4977.275	815.449
270.300	876.500	5081.599	1679.643	1609.516	4287.889	10536.111	2074.855	4837.391	818.812
271.049	878.800	5077.129	1667.390	1616.317	4313.630	10089.164	2058.972	4979.402	815.755
271.801	881.100	5129.170	1657.494	1605.771	4347.343	10447.287	2046.682	4980.395	813.182
272.558	883.400	5219.892	1660.092	1613.184	4205.956	10461.475	2054.757	4867.118	819.805
273.310	885.400	5032.220	1656.615	1603.772	4364.372	10352.668	2038.645	4943.129	807.056
274.064	887.700	5198.469	1656.717	1600.384	4264.199	10337.970	2040.059	4985.210	832.185
274.820	890.000	5163.953	1658.730	1609.465	4302.090	10474.352	2038.518	4918.509	811.310
275.577	892.300	5086.770	1660.131	1619.043	4343.076	10181.643	2046.211	4898.908	813.844
276.329	894.600	5107.391	1650.807	1634.186	4413.662	10461.756	2045.102	4961.507	819.474
277.083	896.900	5172.130	1659.188	1580.744	4337.294	10438.206	2046.733	4918.000	821.079
277.837	899.200	5082.465	1661.774	1585.635	4424.883	10380.344	2035.805	4923.094	813.462
278.589	901.200	5170.258	1653.126	1580.897	4349.368	10330.214	2062.118	5003.206	826.122
279.342	903.500	5062.698	1647.521	1580.248	4553.062	10534.099	2035.117	4941.575	803.350
280.099	905.800	5112.320	1650.209	1537.479	4428.525	10232.550	2056.782	4897.214	816.188
280.845	908.100	4963.481	1636.122	1577.267	4541.447	10393.985	2029.793	4913.720	817.118
281.602	910.400	5246.740	1656.475	1617.018	4305.300	10301.607	2026.647	5008.607	814.379
282.356	912.700	5104.538	1651.775	1604.090	4478.605	10390.724	2030.825	4985.019	803.057
283.107	915.000	5121.082	1667.811	1591.316	4415.610	10381.414	2032.748	4963.239	819.270
283.861	917.000	5088.057	1643.076	1566.250	4452.304	10294.411	2026.482	4965.290	810.087
284.613	919.300	5103.047	1649.636	1605.071	4463.041	10384.547	2031.958	4910.676	799.019
285.368	921.700	5141.193	1653.953	1598.664	4484.324	10455.719	2006.919	4980.408	802.063
286.130	923.900	5191.260	1642.325	1573.637	4382.457	10259.666	2039.104	4919.770	808.024
286.884	926.200	5014.122	1661.188	1596.920	4455.565	10206.059	2046.249	4989.566	805.260
287.639	928.500	5280.836	1651.584	1585.546	4514.165	10354.846	2043.294	4910.218	807.502
288.393	930.800	5104.092	1658.870	1582.362	4449.133	10309.950	1995.570	4877.128	809.909
289.146	932.800	5175.607	1639.523	1572.440	4542.223	10189.896	2027.335	4941.167	815.513
289.903	935.100	5139.295	1647.407	1594.258	4426.360	10216.706	1999.633	4871.270	809.196
290.658	937.400	5207.754	1660.080	1592.385	4477.930	10315.210	2011.313	4936.340	805.477
291.413	939.800	5042.715	1634.021	1584.247	4576.752	10262.532	2016.751	4989.642	804.483
292.172	942.100	5209.422	1644.732	1588.552	4590.546	10041.160	2002.053	4945.205	808.342
292.934	944.400	5180.511	1652.170	1561.882	4497.620	10335.193	2018.165	4965.010	802.942
293.692	946.700	5073.499	1651.393	1599.390	4647.949	11215.206	2035.563	4971.722	809.132
294.455	949.000	5186.573	1663.557	1610.942	4565.060	10174.982	2004.855	4916.089	807.514
295.213	951.300	5139.436	1638.822	1581.101	4593.984	10017.521	1996.870	4968.423	800.255
295.973	953.300	5242.346	1662.500	1592.411	4576.306	10090.539	2003.161	4958.998	800.637
296.732	955.600	5040.371	1649.929	1579.483	4540.975	10105.619	1995.787	4966.755	802.917
297.492	957.900	5144.899	1654.743	1583.865	4578.764	10216.222	2030.608	4998.596	808.852
298.246	960.200	5085.560	1642.949	1578.847	4653.132	9872.287	1983.904	4880.414	794.052
299.000	962.500	5134.799	1660.946	1577.980	4437.339	10144.058	2019.540	5016.019	809.450
299.756	964.800	5030.412	1637.230	1571.778	4634.346	10201.079	1984.897	4974.957	802.535
300.511	967.100	5214.530	1643.446	1559.462	4593.946	10106.230	1995.086	4948.758	800.879
301.273	969.400	5203.551	1650.413	1578.414	4696.767	10033.785	1976.402	4954.910	796.294
302.030	971.700	5381.581	1662.882	1559.818	4693.736	10091.876	1993.125	5001.067	797.567
302.792	973.700	5183.618	1645.293	1555.717	4684.732	10343.600	1970.250	4924.916	794.256
303.552	976.000	5236.895	1630.697	1578.554	4629.634	9952.680	2007.683	5006.594	808.763
304.303	978.300	5076.887	1638.415	1609.898	4704.142	10067.754	1988.094	4912.243	785.315
305.062	980.600	5189.923	1638.924	1587.813	4585.948	10032.550	2009.861	4976.880	796.599
305.832	982.900	5196.864	1640.351	1585.482	4792.023	10122.278	1983.866	4970.614	790.231
306.590	985.200	5244.244	1646.770	1584.298	4577.478	10056.775	1996.182	5003.194	800.013
307.343	987.500	5160.298	1649.063	1589.813	4818.082	10064.518	1983.496	4964.233	798.421
308.101	989.800	5235.112	1637.982	1565.333	4772.065	9936.874	2008.396	5014.567	795.249
308.857	992.100	5186.955	1650.553	1569.332	4692.908	10314.675	2002.779	4955.840	806.024
309.614	994.400	5136.366	1644.911	1567.002	4724.597	10027.532	1990.501	4988.521	795.249
310.368	996.400	5132.048	1641.688	1597.327	4854.750	10120.113	1997.787	5053.872	793.250
311.126	998.700	5304.181	1656.195	1562.773	4652.954	10025.965	1988.871	5020.197	805.464
311.888	1001.000	5197.068	1650.400	1593.392	4814.185	10090.857	2000.168	5004.875	798.637
312.646	1003.300	5339.831	1649.814	1572.517	4818.795	9918.966	2007.339	4987.630	806.190
313.404	1005.600	5165.469	1657.774	1579.904	4816.630	10182.140	1992.488	5013.676	796.650
314.161	1007.900	5287.751	1636.173	1569.842	4898.245	9934.963	1985.496	5001.003	804.509
314.921	1010.200	5363.839	1670.944	1586.972	4770.906	10168.754	1996.360	4995.959	791.212
315.680	1012.500	5191.298	1643.204	1577.573	4903.569	9980.827	1985.993	4932.188	798.344
316.436	1014.900	5345.116	1666.435	1582.731	4777.427	10007.841	1999.188	5043.466	788.881
317.190	1016.800	5173.620	1640.962	1598.206	4952.121	9918.750	2016.535	5047.720	798.994
317.948	1019.100	5293.114	1657.558	1574.045	4955.992	10097.302	2043.956	5020.312	793.644
318.706	1021.400	5257.248	1672.740	1587.482	4917.465	10056.469	1999.633	4943.485	801.439
319.463	1023.700	5259.795	1655.176	1596.194	4935.359	10121.960	2012.841	5054.076	800.573
320.219	1026.000	5201.093	1643.841	1589.023	5063.042	10112.025	2001.289	4998.430	804.343
320.978	1028.300	5347.116	1655.877	1570.428	4843.288	10022.042	2017.528	5061.208	794.663
321.736	1030.600	5327.413	1662.792	1592.042	5058.266	10191.743	2002.244	4971.786	790.460
322.497	1033.000	5475.283	1650.960	1589.762	4998.991	10163.060	2022.253	5065.806	792.753
323.257	1035.300	5343.652	1662.576	1594.525	4945.408	10119.540	2012.383	4996.074	800.726
324.014	1037.200	5343.970	1647.139	1589.290	5021.776	10223.087	2030.086	5015.484	798.395
324.789	1039.500	5372.844	1654.730	1594.309	5099.711	10191.259	2020.852	4908.778	795.593
325.548	1041.800	5370.195	1675.987	1585.928	5027.329	10153.635	2024.164	5069.576	797.020
326.304	1044.100	5377.556	1652.871	1590.246	5076.581	10202.696	2039.460	5005.346	794.345
327.060	1046.500	5453.198	1658.959	1596.003	5058.241	10153.139	2045.001	5066.086	804.878
327.821	1048.800	5445.149	1676.917	1586.539	5094.425	9927.258	2033.474	4976.587	800.955
328.570	1051.100	5396.419	1656.666	1579.305	5051.796	10258.278	2035.283	5052.204	799.057
