Wed, Jul 26, 2017	10:59 AM
 Notes: background
 waiting time: 25.000
 time(s)	 temp (K)	 MS1=1.839	 MS2=14.600	 MS3=17.577	 MS4=27.745	 MS5=43.737	 MS6=28.818	 MS7=25.803	 MS8=60.080
0.000	111.000	20441.515	1993.112	5417.205	5450.256	4769.212	789.390	471.400	476.813
0.755	111.000	20753.290	2019.731	5542.824	5473.614	4731.704	791.288	466.267	483.385
1.536	111.000	20524.735	2010.268	5506.271	5483.664	4767.760	793.250	481.996	483.079
2.301	111.000	20714.890	2028.469	5563.101	5433.533	4711.045	785.455	477.717	494.414
3.065	111.000	20800.377	2018.267	5485.307	5513.874	4794.023	801.337	473.488	493.918
3.829	111.000	20547.851	2053.827	5595.299	5474.723	4727.195	791.861	483.334	497.828
4.586	111.000	20790.315	2028.010	5525.439	5516.231	4783.694	791.658	478.507	482.824
5.383	111.000	20538.605	2047.242	5548.607	5483.485	4717.553	800.853	477.488	495.026
6.147	111.000	20835.899	2042.555	5611.015	5529.833	4790.253	801.541	481.067	484.047
6.901	111.000	20644.865	2050.796	5531.311	5484.644	4778.421	803.324	480.990	491.141
7.675	111.000	20860.378	2024.546	5636.042	5541.844	4819.547	810.240	482.378	494.771
8.459	111.000	20608.401	2058.132	5597.680	5490.987	4802.531	800.815	477.997	498.566
9.233	111.000	20769.555	2064.959	5680.709	5535.221	4745.141	805.668	485.040	493.434
10.036	111.000	20575.579	2050.936	5636.475	5529.426	4792.214	795.975	480.430	495.650
10.833	111.000	20631.925	2070.601	5734.966	5508.500	4756.119	808.915	485.321	497.076
11.603	111.000	20838.803	2057.877	5664.521	5581.301	4817.585	813.029	493.383	508.705
12.365	111.000	20634.599	2076.014	5741.653	5573.685	4793.832	828.746	490.160	501.012
13.164	111.100	21095.506	2084.420	5750.709	5633.546	4868.850	815.946	490.020	510.386
13.946	111.300	20823.354	2119.865	5742.124	5590.828	4889.712	827.090	499.840	518.728
14.739	111.500	21080.019	2182.121	5838.896	5738.418	4962.017	846.755	497.114	512.780
15.523	111.900	21007.943	2368.188	5827.815	5707.175	5155.815	842.374	508.119	520.741
16.293	112.400	21232.881	2763.515	5916.677	5874.940	5438.003	839.279	499.216	525.338
17.053	113.100	21336.085	2994.910	5861.083	6151.767	6115.595	865.249	515.264	526.918
17.807	114.100	21386.916	3459.944	5965.152	6340.661	6715.609	857.747	512.436	529.771
18.565	115.300	21585.414	3867.523	5938.992	6479.017	7093.805	885.372	533.592	538.240
19.325	116.900	21582.943	3859.104	6019.830	6479.195	6719.723	902.006	531.401	531.172
20.080	118.900	21719.172	3774.623	5962.401	6605.745	6242.348	933.682	548.149	538.699
20.875	121.300	21477.612	4000.096	6013.207	6520.767	5740.494	930.396	538.865	542.316
21.648	123.900	21753.713	4106.662	6066.687	6588.461	5574.997	900.503	532.000	547.411
22.412	126.900	21541.040	4467.308	6001.731	6543.858	5441.710	949.590	525.096	548.048
23.167	130.000	21659.718	4807.218	6057.046	6617.602	5372.296	959.600	530.408	548.837
23.921	133.300	21480.605	5465.285	6011.322	6543.782	5316.421	952.379	520.078	554.416
24.720	136.600	21837.812	5922.409	6069.400	6641.547	5262.355	953.474	531.961	568.515
25.517	139.900	21630.730	6254.728	6096.032	6540.432	5320.446	954.990	519.671	562.605
26.285	143.100	21777.861	6574.846	6150.226	6534.510	5243.263	954.811	519.531	578.284
27.076	146.300	21745.715	6793.365	6115.226	6571.076	5270.621	968.198	527.949	607.157
27.833	149.400	21545.166	6905.803	6194.739	6513.928	5281.078	1001.949	536.674	671.285
28.590	152.400	21841.403	7092.646	6221.550	6632.084	5371.659	1077.400	543.781	818.111
29.376	155.400	21605.193	7452.158	6411.259	6689.296	5449.199	1256.793	561.841	1172.503
30.162	158.300	21805.270	8200.934	6830.186	6995.658	5786.918	1605.428	603.286	1842.453
30.956	161.500	21749.879	9873.918	7242.325	7309.637	6228.924	2164.596	662.332	2861.840
31.727	164.200	21959.763	12045.877	8177.346	7943.339	6784.883	2843.550	732.420	4096.091
32.487	166.500	21798.405	13979.092	8782.799	8269.329	7303.358	3200.528	763.319	4382.648
33.249	169.200	21919.045	13071.301	8831.516	8058.668	6756.086	2400.704	683.729	2727.623
34.040	172.300	21473.460	9453.526	8261.356	7724.795	6576.578	2051.764	662.586	2453.433
34.797	174.500	21675.842	9188.302	8477.799	7768.481	6656.754	2147.809	658.014	2738.793
35.553	177.100	21524.177	9235.121	8545.328	7829.603	6804.866	2131.991	665.210	2539.722
36.350	180.000	21395.258	8247.231	8417.696	7528.844	6487.856	1814.624	621.613	1984.082
37.111	182.500	21577.644	6879.158	8168.902	7452.604	6383.188	1578.579	610.571	1685.807
37.863	184.600	21281.203	6316.182	8126.706	7239.205	6257.390	1484.953	588.473	1585.966
38.616	187.100	21613.357	5933.884	8018.917	7293.959	6294.186	1449.559	594.918	1554.176
39.374	189.600	21340.988	5728.611	8007.786	7221.081	6212.902	1446.591	589.301	1598.193
40.134	192.000	21568.627	5671.743	7996.654	7263.289	6283.118	1460.449	586.524	1607.516
40.934	194.500	21346.427	5561.178	7969.525	7174.733	6254.257	1469.440	586.257	1618.495
41.692	196.900	21596.991	5421.077	7973.130	7222.775	6233.637	1456.118	602.267	1639.752
42.482	199.300	21320.788	5361.457	7905.690	7147.439	6277.106	1453.023	595.338	1626.570
43.280	202.000	21645.581	5295.865	7941.645	7187.406	6262.536	1457.124	590.982	1603.606
44.069	204.400	21473.104	5112.052	7831.997	7177.267	6258.307	1436.580	595.911	1562.748
44.858	206.800	21381.516	5093.635	7852.745	7044.706	6158.835	1425.372	585.773	1546.967
45.626	209.100	21620.846	4948.121	7829.959	7113.853	6252.308	1417.998	599.426	1498.938
46.384	211.500	21333.869	5010.352	7753.299	7071.364	6185.748	1402.090	585.238	1482.062
47.143	213.800	21563.265	4861.552	7790.426	7101.167	6260.294	1390.755	599.172	1436.262
47.901	216.200	21438.346	4792.889	7673.479	6976.554	6151.881	1377.420	592.549	1397.301
48.659	218.200	21761.151	4679.013	7698.328	7050.081	6216.837	1356.659	592.485	1349.017
49.417	220.500	21602.875	4626.692	7590.794	6960.073	6151.003	1344.292	589.199	1276.381
50.176	222.800	21995.349	4486.017	7638.340	7003.950	6183.672	1322.462	591.708	1231.269
50.932	225.200	22092.770	4395.856	7521.062	6894.518	6134.623	1293.830	580.538	1183.393
51.690	227.500	22715.213	4286.641	7600.105	6969.727	6130.841	1286.316	592.052	1156.277
52.442	229.800	23001.210	4233.390	7473.288	6829.486	6113.073	1266.663	581.786	1121.264
53.231	232.100	23833.142	4087.978	7560.214	6916.501	6078.265	1262.868	591.046	1120.716
53.988	234.500	24336.334	3993.219	7445.191	6856.041	6168.069	1268.077	590.154	1090.913
54.743	236.800	25209.073	3934.682	7538.473	6884.138	6101.521	1257.073	582.665	1092.174
55.503	239.100	25846.189	3804.528	7432.378	6814.712	6138.164	1235.714	583.913	1063.339
56.262	241.400	26779.376	3774.521	7558.533	6895.932	6053.301	1232.708	571.814	1051.710
57.057	243.700	27079.994	3622.193	7409.975	6850.858	6108.081	1223.754	581.162	1030.441
57.815	246.000	27310.027	3594.963	7466.105	6798.231	6038.642	1220.239	581.506	1003.656
58.605	248.400	27815.167	3482.729	7404.791	6801.797	6076.571	1201.096	581.226	983.379
59.360	250.700	27607.423	3451.589	7488.839	6718.653	6032.031	1184.042	568.910	968.057
60.118	253.000	27816.670	3378.927	7364.226	6822.876	6069.629	1172.936	579.736	931.109
60.875	255.300	27588.879	3325.931	7344.280	6697.307	5936.126	1164.899	577.736	912.539
61.634	257.300	27718.447	3235.133	7373.816	6753.029	6046.857	1148.125	578.844	912.450
62.415	259.900	27156.133	3208.271	7289.221	6706.490	5998.318	1133.822	575.176	887.983
63.177	261.900	27122.712	3165.120	7349.668	6776.566	5979.850	1137.108	570.375	865.580
63.939	264.200	26574.383	3141.418	7299.448	6707.127	5965.522	1135.745	578.462	851.009
64.732	266.900	26707.440	3100.432	7296.914	6741.643	5969.444	1126.715	576.106	839.941
65.495	269.200	26122.621	3071.711	7190.208	6675.056	5985.327	1120.360	572.361	829.510
66.248	271.100	26054.965	3033.349	7287.590	6720.054	5924.485	1120.411	572.502	817.156
67.025	273.400	25636.394	3021.198	7208.383	6699.561	5970.654	1099.829	582.818	799.121
67.795	275.800	25658.581	2990.083	7305.893	6645.826	5900.298	1085.335	573.253	799.287
68.554	278.100	25322.721	2957.516	7131.047	6729.174	5949.448	1089.920	575.775	776.170
69.312	280.400	25182.276	2944.016	7271.746	6628.556	5872.393	1086.519	579.838	783.952
70.068	282.700	25007.812	2911.831	7156.762	6669.147	5951.792	1083.934	577.329	757.511
70.851	285.000	24778.913	2915.804	7212.700	6573.827	5851.416	1075.617	574.705	760.033
71.652	287.700	24825.464	2893.936	7254.539	6604.293	5908.781	1074.356	567.814	748.481
72.418	289.600	24327.597	2884.804	7160.468	6574.553	5876.914	1065.950	573.202	750.493
73.206	292.300	24394.501	2854.376	7245.025	6598.370	5829.356	1065.211	566.668	743.259
73.953	294.300	23815.604	2840.570	7150.737	6529.695	5912.869	1073.885	582.461	729.580
74.708	296.600	23996.805	2857.650	7213.248	6656.525	5856.141	1075.196	573.546	742.317
75.465	298.900	23476.509	2825.898	7098.645	6516.233	5937.960	1068.051	566.222	728.638
76.222	301.200	23465.670	2818.320	7187.851	6598.459	5821.370	1059.390	586.346	732.739
76.985	303.500	22930.523	2780.862	7088.341	6579.138	5880.468	1070.713	573.762	731.478
77.742	305.800	22832.439	2796.107	7117.100	6571.165	5783.314	1053.888	574.399	722.715
78.530	308.100	22588.664	2773.666	7033.002	6547.730	5853.734	1054.334	576.297	713.914
79.328	310.400	22406.571	2767.437	7098.403	6545.565	5794.968	1056.054	575.304	713.863
80.093	312.700	22512.309	2731.916	6960.289	6577.814	5843.124	1043.661	582.283	708.068
80.852	315.000	22083.536	2746.435	7043.484	6499.701	5813.334	1039.993	572.438	715.226
81.614	317.400	22088.452	2731.100	6976.401	6567.981	5842.819	1059.747	575.571	704.782
82.371	319.700	21730.686	2720.618	6951.565	6466.051	5786.613	1037.407	573.915	699.204
83.129	322.000	22025.547	2685.771	7030.467	6568.363	5805.335	1055.608	572.565	699.216
83.887	324.300	21585.350	2713.180	6965.002	6485.589	5712.805	1038.070	571.686	695.115
84.642	326.600	21809.078	2693.770	6996.639	6505.662	5830.541	1042.642	590.001	696.860
85.407	328.900	21614.249	2713.524	6943.477	6477.947	5754.733	1041.075	571.725	695.345
86.163	330.900	21682.096	2672.716	7013.680	6555.856	5833.037	1046.387	584.079	704.629
86.964	333.500	21540.186	2701.030	6928.970	6488.251	5831.330	1045.075	580.767	695.790
87.724	335.800	21698.806	2704.800	6978.184	6558.352	5773.902	1030.644	570.196	701.496
88.482	338.100	21533.958	2696.597	6947.451	6504.312	5823.064	1026.263	577.609	686.251
89.277	340.400	21718.153	2728.617	7045.789	6545.234	5778.767	1016.889	567.318	702.439
90.041	342.700	21499.060	2674.538	6951.386	6563.065	5843.328	1040.630	577.150	696.071
90.799	345.100	21541.524	2687.440	7005.109	6523.353	5766.757	1022.620	556.199	700.656
91.561	347.400	21455.336	2665.495	6954.010	6608.419	5838.832	1032.440	576.322	686.085
92.348	349.700	21477.561	2695.145	7034.033	6562.454	5783.518	1047.762	569.470	700.694
93.127	352.000	21707.849	2666.132	6975.930	6679.170	5840.704	1022.124	570.527	681.869
93.884	354.300	21250.853	2641.296	6909.318	6655.633	5812.939	1008.177	580.640	689.257
94.643	356.600	21543.702	2656.923	7007.312	6775.356	5865.362	1026.887	573.915	694.147
95.402	358.600	21349.216	2653.675	6892.939	6697.893	5787.326	1029.371	572.196	685.257
96.160	360.900	21464.748	2624.356	7036.619	6868.931	5875.717	1026.569	573.724	686.798
96.916	363.200	21290.692	2673.532	6924.767	6818.736	5852.779	1024.327	570.820	690.734
97.672	365.500	21524.546	2597.151	7030.594	6980.311	5948.264	1023.869	574.845	677.947
98.424	367.800	21304.460	2656.783	6929.212	7009.108	5928.981	1035.764	575.062	674.762
99.175	370.200	21485.280	2639.933	7023.513	7117.546	6060.255	1035.331	572.884	684.964
99.932	372.500	21387.222	2634.647	6919.201	7116.604	6108.017	1037.700	567.127	683.831
100.694	374.800	21655.311	2633.807	7043.191	7301.511	6195.835	1034.631	580.742	675.425
101.451	376.800	21506.995	2620.790	6943.452	7260.844	6376.361	1023.741	567.713	676.647
102.211	379.100	21836.436	2634.736	7021.883	7397.710	6488.760	1023.945	574.323	680.265
103.000	381.700	21750.236	2605.927	6931.467	7350.305	6903.281	1047.864	573.584	678.456
103.759	383.700	22088.096	2643.041	7001.708	7515.751	7120.144	1036.872	575.546	689.269
104.516	386.000	22056.573	2673.939	6942.458	7462.997	7641.001	1027.779	579.621	683.487
105.288	388.300	22677.271	2669.545	7073.707	7498.341	8122.006	1030.937	571.266	690.428
106.089	390.900	22839.266	2650.122	7000.129	7571.817	8918.442	1040.566	581.213	679.679
106.846	392.900	22949.054	2667.253	7037.408	7561.271	9768.600	1046.960	583.544	687.932
107.604	395.200	23755.819	2617.364	7010.942	7796.934	11002.711	1039.955	573.508	685.334
108.361	397.500	24120.922	2645.868	7084.610	7888.331	12460.563	1036.974	572.871	691.014
109.149	399.800	25481.875	2649.434	7065.658	8242.149	14856.162	1037.777	583.315	685.028
109.926	402.100	26287.621	2650.071	7027.003	8598.617	17764.734	1038.999	587.976	695.268
110.679	404.400	28491.855	2622.306	7109.127	9373.451	21707.964	1059.327	581.761	701.305
111.440	406.700	30337.991	2677.238	7086.928	10123.297	26299.670	1077.655	584.894	708.998
112.197	409.000	33434.285	2666.106	7195.608	11485.486	33644.220	1095.307	585.085	708.998
112.955	411.400	37801.690	2697.654	7154.991	13324.693	45716.310	1124.945	574.106	731.936
113.731	413.700	45522.729	2717.078	7297.398	16493.177	63048.325	1166.313	576.450	751.156
114.507	416.000	54994.482	2695.107	7349.222	20376.190	84003.515	1221.971	572.527	762.720
115.265	418.300	63328.769	2745.416	7387.190	24401.926	91893.121	1261.556	570.833	759.625
116.021	420.600	63293.158	2678.983	7266.665	26062.683	81969.250	1268.790	572.616	743.081
116.778	422.900	53689.340	2695.082	7253.151	23640.592	51670.193	1233.256	573.419	687.575
117.534	425.200	37103.554	2616.332	6870.943	17337.719	22347.346	1143.629	596.459	639.966
118.295	427.500	26839.173	2609.480	6968.530	12411.235	12412.432	1100.274	584.983	651.149
119.052	429.400	24394.769	2586.644	6956.672	9852.418	10413.688	1060.677	589.479	653.505
119.808	431.700	23691.322	2645.359	7047.585	8372.239	9138.681	1046.590	582.079	666.089
120.566	434.000	23140.343	2654.745	6997.913	7832.303	8520.479	1049.367	595.211	670.700
121.322	436.300	22610.685	2672.309	7098.441	7383.114	7846.211	1022.697	583.862	671.757
122.081	438.600	22580.398	2653.561	7006.064	7270.651	7537.505	1027.256	592.905	678.583
122.843	440.900	22119.287	2680.690	7103.320	7128.780	7214.509	1042.960	585.327	688.734
123.603	443.200	22286.390	2662.120	7057.099	7076.675	7153.845	1041.509	590.651	681.844
124.399	445.500	21908.945	2678.741	7094.302	6972.745	6907.535	1032.568	591.237	680.863
125.158	447.900	22059.693	2690.751	7125.214	7061.264	6904.134	1016.787	595.185	678.583
125.918	450.200	21761.750	2681.301	7118.374	6952.953	6794.219	1030.581	594.395	682.392
126.674	452.500	21976.550	2681.861	7155.501	7016.368	6826.620	1036.299	593.937	684.480
127.431	454.800	21721.311	2704.545	7121.380	6958.926	6771.841	1029.702	592.663	682.443
128.193	457.100	21856.534	2690.051	7168.900	6994.805	6740.178	1040.311	595.746	684.264
128.943	459.100	21680.746	2682.167	7121.329	6927.582	6775.623	1042.082	604.929	689.244
129.700	461.400	21856.012	2666.985	7217.744	7053.749	6784.195	1031.014	589.708	689.511
130.458	463.700	21563.036	2691.566	7156.825	6920.093	6862.741	1033.217	593.338	703.865
131.254	466.000	21812.161	2687.032	7231.474	6990.742	6901.918	1037.509	597.898	696.427
132.014	468.300	21578.778	2676.423	7226.506	6997.072	7120.768	1035.077	597.070	698.898
132.771	470.600	21866.265	2720.249	7337.454	7085.336	7263.137	1044.387	589.288	694.440
133.528	472.900	21806.595	2728.247	7286.521	7075.197	7590.731	1046.106	607.781	708.272
134.318	475.200	21838.079	2727.878	7485.158	7087.399	7791.062	1047.533	590.498	712.577
135.078	477.600	22136.876	2720.491	7464.818	7294.723	8449.257	1048.959	598.013	712.335
135.839	479.900	22154.605	2714.326	7647.090	7401.760	9317.449	1061.046	602.763	703.802
136.595	482.200	23139.553	2716.453	7634.468	8005.735	11451.097	1050.131	604.419	693.307
137.355	484.500	23788.437	2708.824	7681.121	8149.504	11295.318	1032.797	586.817	670.865
138.110	486.800	23396.804	2669.125	7402.142	7618.483	8859.816	1042.413	605.514	657.721
138.868	489.100	22125.159	2664.782	7342.765	7069.937	7005.058	1025.180	594.523	662.102
139.625	491.100	21952.605	2650.670	7292.991	6930.040	6282.570	1022.773	604.457	651.977
140.417	493.700	21457.132	2650.784	7217.693	6779.750	5864.139	1022.710	595.020	656.677
141.175	496.000	21603.907	2674.627	7342.141	6848.973	5824.962	1020.290	596.153	657.785
141.931	498.000	21226.118	2670.284	7189.291	6754.112	5764.337	1024.747	599.032	654.142
142.691	500.300	21577.173	2655.662	7338.256	6815.030	5769.266	1000.675	602.470	666.573
143.451	502.600	21290.425	2655.510	7283.617	6720.220	5753.205	1028.352	603.744	657.021
144.209	504.900	21558.005	2677.824	7353.514	6808.751	5685.944	1024.098	606.228	651.302
144.969	507.200	21245.860	2640.965	7290.724	6743.540	5730.993	1017.360	602.967	655.632
145.732	509.600	21452.190	2636.723	7367.206	6847.253	5627.853	1017.691	596.828	652.168
146.490	511.900	21232.397	2632.482	7313.063	6744.687	5671.475	1029.434	601.222	644.590
147.249	514.200	21358.374	2629.476	7415.413	6768.682	5616.110	1008.840	603.961	649.073
148.006	516.500	21158.526	2621.159	7303.944	6765.880	5679.639	1023.754	606.126	645.647
148.767	518.800	21349.420	2640.824	7387.610	6856.169	5612.760	1022.289	602.343	648.169
149.526	520.800	21112.738	2626.509	7294.939	6803.491	5641.162	1028.657	600.891	644.755
150.282	523.100	21344.147	2625.706	7424.011	6821.284	5593.286	1014.928	601.171	646.016
151.042	525.400	21172.969	2616.434	7328.156	6914.897	5650.282	1013.527	606.648	641.635
151.800	527.700	21162.041	2660.095	7471.314	6871.669	5576.181	1019.729	608.406	639.865
152.598	530.000	21421.062	2608.487	7301.448	6991.888	5598.266	1025.066	618.990	648.156
153.358	532.300	21067.601	2615.415	7467.837	6894.187	5544.404	1018.417	607.310	646.806
154.118	534.600	21305.619	2632.800	7342.727	7057.608	5640.895	1023.614	610.762	635.802
154.877	536.900	21106.077	2667.851	7449.725	7003.822	5556.924	1014.316	604.916	643.775
155.639	539.200	21300.996	2636.316	7468.524	7123.914	5621.357	1028.836	601.235	655.314
156.397	541.500	21125.157	2619.389	7409.376	7109.471	5528.687	1019.220	617.206	640.985
157.196	543.800	21348.923	2629.489	7493.144	7226.379	5561.088	1019.844	611.169	652.576
157.958	546.100	21153.597	2624.242	7438.658	7241.446	5592.496	1026.900	616.480	639.075
158.715	548.400	21301.913	2638.201	7490.189	7364.888	5540.761	1044.311	612.316	651.162
159.472	550.700	21168.550	2644.200	7427.360	7394.449	5609.194	1030.695	598.522	642.208
160.278	553.000	21416.528	2638.252	7570.059	7477.733	5515.976	1032.797	609.832	646.233
161.036	555.400	21101.479	2615.734	7425.934	7606.537	5592.254	1026.581	614.252	649.111
161.798	557.700	21284.349	2653.535	7551.694	7731.558	5527.974	1028.505	613.169	653.251
162.553	560.000	21101.225	2604.105	7391.252	7910.084	5545.588	1017.972	617.130	647.061
163.307	562.300	21155.953	2594.336	7519.458	7940.677	5511.798	1039.203	617.550	644.119
164.068	564.600	21185.578	2609.022	7468.805	8214.142	5560.248	1016.239	620.467	589.950
164.819	566.500	20916.139	2591.649	7511.395	8173.665	5407.831	1033.548	605.616	627.383
165.575	568.800	21097.709	2586.338	7448.910	8536.488	5519.950	1040.655	619.295	631.981
166.336	571.200	21037.925	2599.902	7598.436	8649.512	5494.451	1042.387	607.578	641.928
167.092	573.500	21134.976	2570.188	7481.821	8961.899	5543.792	1039.305	611.284	644.997
167.850	575.800	21009.701	2597.457	7558.724	9061.740	5489.955	1048.399	613.169	642.437
168.611	578.100	21319.464	2602.628	7575.778	9439.273	5572.500	1065.351	615.882	638.642
169.370	580.400	20974.981	2597.457	7604.970	9558.436	5509.748	1048.717	609.972	647.889
170.127	582.700	21287.342	2582.504	7610.052	9927.067	5545.983	1057.060	611.182	646.093
170.889	585.000	21011.063	2571.373	7557.527	10106.320	5466.316	1048.934	607.883	645.507
171.647	587.300	21150.859	2558.674	7675.683	10422.120	5514.575	1063.925	611.883	643.418
172.407	589.300	21013.776	2575.193	7567.627	10612.326	5476.022	1075.961	615.181	636.413
173.168	591.600	21271.537	2593.687	7681.885	10996.088	5547.881	1071.261	609.896	645.902
173.923	594.000	20838.701	2579.256	7558.788	10925.617	5478.836	1081.374	615.271	640.094
174.682	596.300	21110.013	2521.369	7647.879	11026.579	5499.762	1062.753	605.234	638.425
175.437	598.700	20907.567	2533.443	7544.854	10864.508	5474.073	1071.923	598.229	645.558
176.197	601.100	21176.930	2532.514	7681.784	10776.180	5494.808	1066.026	604.865	645.087
176.957	603.400	21021.469	2545.276	7561.743	10383.910	5481.817	1062.485	599.477	637.470
177.714	605.800	21095.557	2517.141	7641.014	10132.557	5472.990	1055.850	594.255	649.952
178.469	608.100	20891.035	2512.033	7553.731	9712.534	5476.174	1068.179	588.320	641.495
179.235	610.500	21088.017	2497.896	7674.931	9436.688	5401.781	1048.144	598.904	641.087
179.995	612.500	20834.625	2505.716	7567.041	8993.969	5466.520	1035.535	585.365	625.702
180.753	614.800	21090.972	2534.118	7698.061	8867.216	5423.637	1039.292	605.616	635.114
181.549	617.400	20914.980	2501.691	7552.776	8618.562	5448.778	1027.511	597.974	643.061
182.313	619.700	21016.387	2497.718	7655.394	8325.114	5404.927	1040.018	591.441	648.971
183.071	621.700	21090.233	2523.458	7595.188	8285.300	5454.739	1027.715	600.471	640.527
183.859	624.300	20890.322	2507.359	7633.512	8009.161	5418.771	1029.715	586.855	645.583
184.666	626.600	21205.129	2505.028	7681.389	7938.907	5465.107	1030.249	599.299	631.688
185.447	628.900	20855.653	2505.907	7559.628	7766.952	5432.068	1033.650	593.262	645.367
186.207	631.200	21156.068	2503.284	7638.416	7749.911	5390.369	1020.812	603.311	636.872
186.998	633.500	20954.705	2493.196	7567.181	7584.528	5453.567	1030.848	589.607	638.489
187.770	635.800	21121.017	2492.343	7672.753	7557.832	5400.673	1024.454	598.051	639.712
188.551	638.100	20987.501	2482.396	7578.300	7536.270	5440.742	1023.843	593.122	642.310
189.351	640.700	20861.181	2493.234	7686.381	7367.448	5386.688	1035.064	597.911	648.105
190.107	642.700	21087.240	2470.767	7586.884	7385.075	5447.314	1026.785	600.318	636.973
190.882	645.000	20864.887	2515.141	7638.989	7134.613	5367.329	1031.434	592.956	634.490
191.640	647.300	20981.528	2478.040	7671.518	7130.919	5424.681	1030.504	605.553	634.490
192.400	649.600	20788.532	2475.009	7598.080	6963.792	5393.808	1021.640	598.828	637.980
193.157	651.900	20988.354	2440.760	7672.511	6934.676	5446.600	1030.657	597.554	633.293
193.917	654.200	20837.695	2495.489	7624.584	6805.656	5388.535	1019.576	593.262	626.682
194.677	656.500	21103.097	2489.961	7712.211	6824.353	5387.962	1016.927	606.062	649.251
195.435	658.800	20787.169	2478.486	7588.629	6724.499	5390.917	1022.264	593.619	635.853
196.197	661.100	20965.887	2460.553	7701.461	6820.010	5363.419	1028.645	596.573	632.987
196.976	663.400	20755.698	2445.129	7616.879	6726.665	5378.881	1013.081	596.905	635.954
197.741	665.700	21084.693	2486.484	7745.466	6822.124	5358.566	1005.044	597.541	640.043
198.535	668.000	20736.899	2469.876	7609.657	6767.319	5422.312	1028.492	600.675	635.967
199.295	670.300	20990.405	2490.394	7730.450	6766.682	5369.265	1020.901	589.390	640.973
200.054	672.600	20848.241	2479.339	7617.885	6820.660	5430.196	1014.545	593.440	643.596
200.814	674.900	20972.727	2486.038	7672.053	6757.589	5364.934	1011.400	587.505	644.985
201.573	677.200	20944.528	2473.684	7636.276	6852.157	5395.757	1012.660	597.923	640.196
202.331	679.500	20790.646	2485.771	7674.027	6779.979	5358.732	1019.016	582.321	636.897
203.088	681.500	21095.290	2482.714	7612.599	6855.774	5417.434	1019.105	598.127	637.980
203.883	684.100	20869.536	2487.796	7691.629	6824.633	5391.082	1009.387	590.867	639.495
204.640	686.400	21080.210	2498.928	7720.350	6867.046	5406.532	1017.844	577.876	639.202
205.429	688.700	20858.137	2490.687	7615.299	6812.979	5385.669	1014.125	580.920	648.895
206.190	691.000	21066.250	2457.127	7716.172	6852.946	5382.727	1009.769	581.341	648.500
206.986	693.400	20775.668	2460.897	7615.669	6771.446	5409.206	1013.921	578.640	636.680
207.756	695.700	20965.518	2500.341	7693.208	6881.209	5322.000	1013.106	579.099	652.410
208.517	698.000	20811.636	2455.000	7604.180	6768.529	5397.349	1013.603	580.233	641.915
209.274	700.300	21056.685	2493.324	7655.941	6835.727	5361.890	1006.178	573.278	641.482
210.064	702.600	20965.925	2509.422	7647.484	6833.562	5418.427	1015.361	573.113	652.193
210.859	704.900	20741.662	2478.231	7703.894	6747.641	5344.594	1022.786	566.261	655.136
211.612	707.200	21020.501	2473.378	7634.149	6805.592	5400.176	1016.889	584.588	647.112
212.401	709.500	20774.598	2477.339	7662.017	6722.309	5353.624	1011.272	564.516	644.845
213.188	711.800	21007.306	2441.524	7729.825	6794.448	5362.667	1013.845	574.807	646.246
213.948	714.100	20714.202	2441.690	7590.234	6740.662	5355.726	1018.315	568.706	647.048
214.702	716.400	21053.629	2446.301	7672.881	6765.676	5309.098	1014.393	564.732	653.021
215.461	718.700	20746.515	2452.949	7585.725	6682.112	5365.113	1024.314	573.291	643.864
216.218	721.000	20932.097	2453.395	7688.699	6775.725	5325.235	1003.172	564.770	646.653
216.973	723.300	20771.032	2448.822	7630.061	6681.081	5364.348	1017.653	571.050	648.258
217.736	725.600	21000.632	2466.819	7675.861	6758.455	5320.420	1006.649	575.813	659.491
218.497	727.600	20612.349	2441.754	7583.344	6671.669	5350.886	1003.465	566.299	638.833
219.257	729.900	20969.657	2441.091	7709.727	6713.138	5280.721	1020.697	568.604	657.046
220.020	732.200	20697.492	2434.405	7586.681	6721.073	5332.686	1021.143	560.644	644.552
220.779	734.500	21018.756	2478.613	7659.737	6665.313	5316.179	1013.476	572.985	639.190
221.539	736.800	20731.307	2442.849	7634.098	6729.377	5326.776	1006.598	572.132	640.858
222.296	739.100	20924.494	2486.853	7718.516	6711.419	5327.999	1028.530	564.274	653.302
223.056	741.400	20902.867	2446.466	7596.755	6766.950	5393.617	1018.978	568.553	655.581
223.818	743.700	20878.171	2463.164	7745.644	6673.095	5311.365	1011.629	564.146	649.315
224.571	746.000	20789.526	2460.400	7608.587	6768.427	5394.929	1015.399	559.345	643.584
225.353	748.300	20670.580	2481.937	7693.208	6738.650	5311.709	1006.369	559.523	652.614
226.111	750.600	20896.435	2458.171	7617.477	6807.274	5377.862	1002.357	562.720	654.219
226.859	752.900	20573.159	2446.059	7713.026	6680.253	5315.975	1025.881	567.127	650.678
227.633	755.300	20934.466	2441.524	7676.192	6802.294	5356.006	1022.340	561.688	648.436
228.395	757.200	20737.777	2454.261	7630.074	6670.204	5335.016	1026.212	563.599	651.875
229.152	759.500	20842.497	2443.091	7700.200	6790.576	5366.934	1012.049	576.603	652.525
229.909	761.800	20712.457	2484.255	7609.058	6725.633	5292.617	1015.412	564.516	654.804
230.671	764.100	21072.810	2476.945	7733.048	6836.797	5359.980	1016.507	566.592	651.735
231.430	766.400	20667.447	2488.331	7617.350	6693.575	5321.592	1010.470	566.796	647.850
232.187	768.700	21081.178	2452.669	7708.963	6788.627	5352.198	1016.354	578.819	655.836
232.947	771.000	20747.776	2465.558	7617.426	6710.757	5333.641	1024.964	568.579	653.849
233.707	773.300	20996.875	2454.656	7732.029	6857.786	5324.623	1026.569	570.617	653.735
234.468	775.600	20746.757	2482.854	7610.447	6755.742	5385.045	1013.705	573.622	646.322
235.226	778.000	21096.754	2504.430	7685.095	6806.280	5361.164	1017.488	569.228	650.882
235.988	779.900	20822.730	2477.187	7659.558	6772.936	5357.713	1021.627	564.503	653.493
236.749	782.200	20999.741	2496.750	7681.605	6830.263	5307.124	1016.443	568.923	651.417
237.509	784.500	20784.100	2446.097	7591.852	6785.965	5397.247	1022.149	568.171	655.174
238.265	786.900	21055.552	2476.677	7692.151	6868.141	5329.260	1017.793	565.917	660.383
239.023	789.100	20802.275	2460.222	7579.930	6833.014	5385.160	1024.200	571.495	658.180
239.782	791.500	20969.632	2481.071	7752.089	6827.868	5316.205	1020.302	555.702	642.934
240.539	793.800	20729.066	2462.552	7605.823	6851.405	5342.416	1025.996	568.031	646.870
241.297	796.100	20937.676	2470.296	7667.149	6801.478	5288.885	1018.239	552.926	653.684
242.056	798.200	20719.590	2425.489	7598.971	6843.267	5309.289	1017.284	547.245	652.550
242.813	799.900	20686.844	2433.641	7635.856	6781.520	5238.780	1012.024	534.776	643.787
243.567	801.000	20851.629	2409.976	7509.587	6769.561	5290.808	1001.070	562.771	641.890
244.324	802.100	20709.579	2405.875	7396.029	6510.986	5095.049	960.568	536.432	612.710
245.077	800.400	20170.763	2310.670	7305.931	6459.135	5074.480	963.918	532.025	614.303
245.830	796.500	20225.900	2315.204	7348.955	6310.603	5063.221	960.581	523.211	610.622
246.580	792.900	20413.431	2299.755	7220.699	6347.271	5105.773	937.643	528.739	598.115
247.335	789.200	20166.395	2297.794	7231.359	6185.480	5047.886	932.574	530.306	610.583
248.091	785.300	20412.043	2270.907	7113.929	6213.577	5077.957	931.096	527.223	604.050
248.850	782.000	20124.798	2276.511	7207.720	6098.796	5014.122	928.332	530.127	601.401
249.609	777.900	20476.324	2261.597	7095.092	6144.443	5081.472	923.964	536.050	599.146
250.368	773.800	20294.052	2295.399	7120.565	6027.051	5008.874	920.792	524.956	598.764
