Mon, Jul 24, 2017	11:14 AM
 Notes: HOAc_1.8E-09_15 s_724
 waiting time: 50.000
 time(ms)	 temp (K)	 MS1=1.538	 MS2=17.903	 MS3=28.250	 MS4=44.784	 MS5=61.297	 MS6=31.397	 MS7=68.640	 MS8=90.000
0.000	94.400	165610.000	54600.000	84760.000	20810.000	3880.000
0.864	94.400	605590.000	66490.000	86730.000	21340.000	4000.000
1.656	94.400	606140.000	67870.000	87180.000	22060.000	4420.000
2.448	94.400	598160.000	67660.000	87850.000	22830.000	4070.000
3.238	94.400	604390.000	68810.000	88780.000	22740.000	4150.000
4.026	94.400	604070.000	69500.000	87900.000	22260.000	4290.000
4.819	94.300	594940.000	68470.000	87460.000	22420.000	4210.000
5.610	94.300	596640.000	70080.000	89130.000	23030.000	4170.000
6.402	94.200	595410.000	70930.000	88220.000	23340.000	4380.000
7.192	94.200	588630.000	70300.000	89540.000	23080.000	4490.000
7.985	94.200	591880.000	72170.000	89340.000	23010.000	4430.000
8.776	94.200	591800.000	71490.000	90660.000	23680.000	4060.000
9.568	94.200	592250.000	73130.000	99420.000	23940.000	4410.000
10.359	94.400	599880.000	74290.000	107160.000	24700.000	5230.000
11.149	94.800	610420.000	74510.000	117750.000	24930.000	5200.000
11.944	95.500	607830.000	83320.000	121060.000	24820.000	5440.000
12.734	96.900	619590.000	80140.000	133910.000	25260.000	5020.000
13.525	98.600	630170.000	79400.000	150460.000	26110.000	4920.000
14.316	100.700	637350.000	78930.000	166870.000	25980.000	4870.000
15.109	103.300	642060.000	80050.000	175340.000	26330.000	4430.000
15.901	106.200	645880.000	81430.000	181140.000	26140.000	4690.000
16.691	109.500	648680.000	81540.000	177720.000	25670.000	4630.000
17.481	112.400	648740.000	83140.000	173800.000	25370.000	4690.000
18.272	115.000	636290.000	82420.000	168800.000	25330.000	4690.000
19.062	117.300	637710.000	81390.000	162330.000	26000.000	4530.000
19.856	120.100	631230.000	82700.000	157190.000	25650.000	4550.000
20.648	122.700	633230.000	81920.000	154490.000	26500.000	4250.000
21.437	124.900	622740.000	82930.000	151690.000	25920.000	4640.000
22.226	127.000	622890.000	82500.000	148320.000	26380.000	4450.000
23.015	129.100	624120.000	83900.000	149390.000	26260.000	4590.000
23.804	131.200	619940.000	89380.000	148090.000	26610.000	4760.000
24.639	133.600	615430.000	85690.000	146940.000	26330.000	4520.000
25.426	135.800	612070.000	88780.000	148980.000	28000.000	4960.000
26.266	138.300	611770.000	86640.000	148110.000	26070.000	4570.000
27.055	140.500	608840.000	87200.000	146480.000	26910.000	4650.000
27.843	142.800	606470.000	88420.000	143770.000	26610.000	4710.000
28.629	145.100	607810.000	87690.000	142580.000	26320.000	4700.000
29.420	147.400	605650.000	89560.000	138560.000	27100.000	4820.000
30.206	149.700	604230.000	90090.000	137970.000	27220.000	4880.000
30.994	152.000	603040.000	90530.000	133710.000	26720.000	4880.000
31.781	154.600	608180.000	90820.000	131770.000	27320.000	4690.000
32.570	156.900	606350.000	90850.000	128720.000	27710.000	5000.000
33.361	159.100	598710.000	90720.000	128740.000	28040.000	5040.000
34.155	161.400	600130.000	91950.000	128500.000	28440.000	4870.000
34.945	163.700	594230.000	93220.000	126090.000	28500.000	4960.000
35.736	166.300	597850.000	93020.000	125830.000	28590.000	4890.000
36.526	168.600	591790.000	93760.000	124040.000	28250.000	4900.000
37.314	170.800	595770.000	94640.000	123060.000	28110.000	4780.000
38.103	173.100	587960.000	94400.000	123150.000	28050.000	5100.000
38.895	175.300	599910.000	96020.000	122030.000	27930.000	4950.000
39.685	177.900	609660.000	97410.000	121860.000	28350.000	4850.000
40.474	180.200	600620.000	97910.000	121360.000	28890.000	4820.000
41.268	182.500	589700.000	97250.000	119380.000	28400.000	4700.000
42.058	184.800	593130.000	97000.000	119670.000	28310.000	4980.000
42.851	187.100	598780.000	98710.000	119810.000	29500.000	5030.000
43.644	189.600	587120.000	99400.000	118320.000	29510.000	4930.000
44.435	191.900	597950.000	100290.000	118350.000	30200.000	4940.000
45.226	194.200	601570.000	102640.000	118520.000	29680.000	5110.000
46.018	196.500	600420.000	102560.000	117220.000	29100.000	4860.000
46.811	198.800	605310.000	101540.000	116350.000	30610.000	5000.000
47.601	201.000	600620.000	102780.000	117440.000	29820.000	5430.000
48.392	203.600	616350.000	105400.000	116610.000	29830.000	5130.000
49.184	205.900	606670.000	105030.000	116680.000	29440.000	5280.000
49.974	208.200	617260.000	106120.000	116750.000	31120.000	5170.000
50.766	210.500	623550.000	107950.000	118020.000	30510.000	4970.000
51.557	212.700	621430.000	105850.000	116250.000	29910.000	5070.000
52.349	215.300	633440.000	106450.000	117340.000	30400.000	5140.000
53.140	217.600	639830.000	108890.000	118580.000	31120.000	5420.000
53.931	219.900	650630.000	107210.000	116260.000	30230.000	5380.000
54.722	222.100	668900.000	110820.000	116670.000	31300.000	5400.000
55.513	224.700	672460.000	111790.000	116990.000	31840.000	5210.000
56.305	227.000	703030.000	113990.000	118120.000	32060.000	5440.000
57.096	229.300	718560.000	113280.000	116970.000	31520.000	5520.000
57.886	231.600	735420.000	114580.000	116840.000	32810.000	5150.000
58.768	234.200	763700.000	114960.000	116770.000	31670.000	5070.000
59.557	236.500	792290.000	116180.000	116870.000	32610.000	5420.000
60.350	238.700	841630.000	116720.000	118120.000	32400.000	5260.000
61.139	241.400	871220.000	116170.000	117850.000	32410.000	5150.000
61.929	243.600	898370.000	118100.000	119420.000	32500.000	5350.000
62.716	245.900	944530.000	119570.000	117950.000	33130.000	5420.000
63.505	248.200	994150.000	118290.000	125090.000	33340.000	5060.000
64.382	250.800	1036290.000	120320.000	119420.000	32740.000	5180.000
65.221	253.400	1099280.000	120530.000	117920.000	32920.000	5160.000
66.011	255.700	1136010.000	124810.000	119730.000	33670.000	5190.000
66.797	258.000	1213750.000	123050.000	119040.000	33850.000	5300.000
67.583	260.300	1244220.000	123380.000	118080.000	33440.000	4980.000
68.372	262.500	1273580.000	120660.000	116730.000	34080.000	4880.000
69.261	265.500	1290030.000	124100.000	118780.000	34140.000	4960.000
70.049	267.800	1312450.000	126490.000	119900.000	33950.000	4940.000
70.841	270.100	1317980.000	127210.000	118640.000	33950.000	5330.000
71.628	272.400	1360450.000	128050.000	119940.000	34520.000	5270.000
72.417	274.600	1338680.000	128780.000	118610.000	34570.000	4920.000
73.206	276.800	1271130.000	128900.000	119650.000	35010.000	5060.000
73.997	279.100	1203470.000	130370.000	119840.000	34240.000	5160.000
74.825	281.700	1139330.000	133010.000	120780.000	35720.000	4930.000
75.614	284.000	1090720.000	132270.000	121310.000	35690.000	5130.000
76.405	286.300	1042360.000	134090.000	119660.000	34950.000	5120.000
77.196	288.600	1001670.000	137300.000	119950.000	35330.000	5180.000
77.984	291.200	960130.000	138140.000	120150.000	35700.000	5120.000
78.771	293.500	941230.000	141880.000	122350.000	36210.000	5150.000
79.562	295.800	924440.000	144870.000	121440.000	35290.000	5240.000
80.354	298.100	885480.000	148920.000	122910.000	35530.000	5070.000
81.145	300.400	868940.000	150600.000	121300.000	36090.000	4940.000
81.938	302.900	848070.000	154600.000	121500.000	35650.000	4850.000
82.728	305.200	828820.000	155220.000	120800.000	36070.000	5040.000
83.519	307.500	798750.000	156060.000	120890.000	37240.000	5060.000
84.309	309.700	799580.000	160080.000	120170.000	36720.000	5190.000
85.103	312.100	798180.000	161890.000	121070.000	37240.000	5210.000
85.895	314.700	780690.000	157230.000	119700.000	36650.000	5280.000
86.686	316.600	773420.000	156580.000	120200.000	37080.000	5000.000
87.478	319.200	768190.000	151220.000	121610.000	37630.000	5090.000
88.272	321.500	778910.000	148800.000	122070.000	38040.000	5010.000
89.062	323.800	781920.000	144960.000	123060.000	37540.000	5060.000
89.855	326.400	779230.000	142370.000	121480.000	37950.000	5310.000
90.646	328.300	777410.000	140150.000	122100.000	38670.000	5320.000
91.437	330.900	781340.000	137810.000	121400.000	39740.000	4900.000
92.230	333.200	791630.000	150380.000	123730.000	40170.000	5090.000
93.061	335.800	772930.000	139260.000	120100.000	40820.000	4900.000
93.853	338.100	823000.000	144010.000	125030.000	43080.000	5130.000
94.681	340.700	785810.000	142850.000	123060.000	43640.000	5340.000
95.470	343.000	784500.000	143170.000	124050.000	45660.000	5200.000
96.261	345.300	787500.000	141290.000	123730.000	48970.000	5040.000
97.051	347.600	820890.000	142950.000	126190.000	52020.000	5140.000
97.849	349.900	820350.000	146070.000	126390.000	56750.000	5090.000
98.638	352.100	837260.000	144450.000	125530.000	60690.000	5370.000
99.429	354.400	845490.000	145380.000	125390.000	67190.000	5080.000
100.221	357.000	867650.000	144270.000	125320.000	71320.000	5190.000
101.010	359.300	912760.000	148260.000	129390.000	85050.000	5210.000
101.803	361.600	960290.000	148050.000	129870.000	99530.000	5250.000
102.591	363.900	1010750.000	150480.000	132870.000	114670.000	5330.000
103.376	366.500	1047950.000	150320.000	134410.000	137940.000	5650.000
104.164	368.700	1128440.000	149710.000	136230.000	164860.000	5460.000
104.953	371.000	1215020.000	150820.000	136750.000	205220.000	5500.000
105.743	373.300	1379840.000	153870.000	144520.000	249030.000	5560.000
106.530	375.600	1480590.000	154710.000	149290.000	290830.000	5650.000
107.317	377.900	1599280.000	155840.000	150560.000	328260.000	5550.000
108.105	380.200	1675140.000	155500.000	154990.000	341660.000	5650.000
108.893	382.800	1688290.000	158590.000	157300.000	326120.000	5480.000
109.681	385.000	1636890.000	155650.000	153910.000	288420.000	5660.000
110.469	387.300	1581930.000	159300.000	154510.000	263000.000	5340.000
111.258	389.600	1469730.000	158460.000	156390.000	235410.000	5380.000
112.045	391.900	1405100.000	158270.000	158000.000	218090.000	5300.000
112.834	394.200	1365600.000	161640.000	161880.000	205260.000	5140.000
113.620	396.800	1317750.000	160270.000	167950.000	194780.000	5180.000
114.407	399.000	1275550.000	161440.000	173110.000	182210.000	5510.000
115.197	401.300	1230370.000	156820.000	176640.000	166180.000	5690.000
115.985	403.600	1172750.000	161590.000	186050.000	150100.000	5200.000
116.774	405.900	1146410.000	159030.000	194430.000	133000.000	5160.000
117.559	408.100	1131340.000	163640.000	210790.000	136370.000	5530.000
118.349	410.700	1104330.000	163460.000	220770.000	134160.000	5300.000
119.139	413.000	1106660.000	163670.000	231730.000	130510.000	5410.000
119.928	415.300	1096970.000	163160.000	249420.000	130240.000	5170.000
120.719	417.500	1132360.000	166960.000	270960.000	133550.000	5400.000
121.508	419.800	1129400.000	165320.000	286180.000	130970.000	5560.000
122.298	422.100	1129840.000	165790.000	301550.000	131570.000	5410.000
123.088	424.600	1158140.000	168090.000	320770.000	130160.000	5160.000
123.878	426.900	1148920.000	167200.000	333010.000	118950.000	5590.000
124.668	429.100	1100910.000	167570.000	340420.000	85010.000	5290.000
125.459	431.400	973720.000	165190.000	341080.000	72910.000	5330.000
126.250	433.700	923130.000	166660.000	347340.000	71700.000	5510.000
127.041	436.300	890510.000	167620.000	341800.000	69740.000	5460.000
127.830	438.500	879910.000	171540.000	338760.000	68740.000	5390.000
128.621	440.800	860380.000	170680.000	320430.000	66060.000	5530.000
129.412	443.100	846720.000	167530.000	297520.000	62460.000	5280.000
130.201	445.300	821150.000	172720.000	285540.000	60700.000	5060.000
130.994	447.900	827580.000	172180.000	264020.000	60460.000	5360.000
131.785	450.200	822130.000	174380.000	240330.000	59280.000	5480.000
132.576	452.500	792820.000	175800.000	220710.000	58700.000	5470.000
133.369	454.800	787880.000	173490.000	207300.000	56720.000	5400.000
134.159	457.000	758160.000	174850.000	194200.000	55660.000	5260.000
134.950	459.300	746590.000	174150.000	185600.000	54930.000	5540.000
135.745	461.900	739300.000	173820.000	182580.000	54460.000	5450.000
136.536	464.200	726570.000	174720.000	173300.000	53410.000	5540.000
137.326	466.500	718650.000	177340.000	173310.000	51930.000	5290.000
138.117	468.700	707850.000	177250.000	168680.000	52010.000	5450.000
141.133	477.800	679460.000	177960.000	174010.000	52060.000	5630.000
141.921	480.100	691170.000	182070.000	171990.000	52320.000	5800.000
142.710	482.400	687810.000	182640.000	173740.000	52540.000	5680.000
143.498	484.600	690850.000	181080.000	173340.000	51330.000	5330.000
144.288	487.200	677780.000	181480.000	172110.000	52230.000	5530.000
145.391	490.100	671070.000	181510.000	171750.000	51320.000	5550.000
146.179	492.700	676480.000	187110.000	171490.000	52330.000	5660.000
146.968	495.000	690400.000	182670.000	172270.000	50640.000	5510.000
147.754	497.300	686000.000	181670.000	169810.000	51790.000	5370.000
148.544	499.500	682930.000	184270.000	168930.000	50540.000	5410.000
149.332	501.800	659770.000	166270.000	169210.000	52320.000	5600.000
150.118	504.000	682630.000	184950.000	169490.000	51680.000	5590.000
150.907	506.600	672650.000	182070.000	168820.000	50580.000	5810.000
151.695	508.900	675020.000	185700.000	170890.000	52170.000	5520.000
152.483	511.200	669870.000	186300.000	167400.000	51330.000	5670.000
153.271	513.500	662940.000	183190.000	165490.000	51200.000	5540.000
154.058	515.700	651370.000	186030.000	165390.000	50630.000	5400.000
154.847	518.000	641280.000	188020.000	169820.000	50820.000	5530.000
155.642	520.300	666330.000	188290.000	167660.000	50540.000	5530.000
156.432	522.800	657840.000	186280.000	171450.000	51840.000	5740.000
157.222	525.100	663740.000	191160.000	169030.000	54150.000	5550.000
158.124	527.700	650370.000	190820.000	166270.000	52480.000	5640.000
158.915	530.000	649940.000	191850.000	165860.000	51350.000	5350.000
159.705	532.200	647220.000	191810.000	167510.000	52320.000	5440.000
160.495	534.500	637930.000	190040.000	162160.000	51010.000	5380.000
161.285	537.100	623530.000	190820.000	163120.000	51450.000	5670.000
162.075	539.300	643340.000	188820.000	161050.000	51630.000	5730.000
162.864	541.600	644060.000	193750.000	163820.000	51660.000	5470.000
163.652	543.800	654220.000	193940.000	163410.000	52100.000	5690.000
164.443	546.400	639710.000	191020.000	164080.000	53090.000	5500.000
165.233	548.600	646920.000	195790.000	163830.000	53360.000	5670.000
166.022	550.900	661150.000	197800.000	163340.000	53290.000	5690.000
166.814	553.200	648770.000	197320.000	160500.000	52530.000	5540.000
167.603	555.400	643520.000	198570.000	160100.000	52170.000	5470.000
168.394	557.700	641320.000	196670.000	159780.000	52600.000	5640.000
169.184	560.300	641890.000	195370.000	160100.000	52930.000	5450.000
169.975	562.500	639610.000	197650.000	161300.000	52840.000	5590.000
170.766	564.800	640000.000	200690.000	158980.000	53670.000	5560.000
171.557	567.100	631700.000	198990.000	158990.000	53390.000	5620.000
172.348	569.700	624340.000	199510.000	161160.000	53930.000	5440.000
173.139	571.900	631050.000	195560.000	155780.000	53800.000	5890.000
173.930	574.200	641230.000	203760.000	160150.000	54560.000	5680.000
174.721	576.400	636770.000	204360.000	159720.000	53940.000	5560.000
175.514	578.700	637890.000	203170.000	160170.000	54160.000	5810.000
176.306	580.900	642760.000	200840.000	159470.000	53560.000	5740.000
177.096	583.500	633920.000	202950.000	159730.000	54430.000	5760.000
177.888	585.800	631350.000	202880.000	159780.000	54590.000	5620.000
178.680	588.000	626100.000	202970.000	160620.000	53670.000	5430.000
179.472	590.300	636580.000	203270.000	157780.000	54830.000	5680.000
180.261	592.500	637330.000	206410.000	159540.000	54800.000	5890.000
181.051	595.100	630310.000	203070.000	159300.000	54690.000	5530.000
181.841	597.400	617600.000	202380.000	155800.000	54060.000	5500.000
182.632	599.600	620250.000	205010.000	160690.000	54570.000	5620.000
