Wed, Oct 11, 2017	2:15 PM
 Notes: GUA_1.34e-9_30s_0.02L_101117
 waiting time: 50.000
 time(s)	 temp (K)	 MS1=2.071	 MS2=27.907	 MS3=78.871	 MS4=125.586	 MS5=78.871	 MS6=78.871	 MS7=109.505	 MS8=125.586
0.000	99.200	3179.072	9034.496	4.461	21.374
0.983	99.200	3222.544	9052.480	4.370	22.208
1.840	99.300	3249.896	9073.024	4.318	23.128
2.719	99.300	3183.868	9099.580	4.132	23.645
3.591	99.300	3171.796	9112.036	4.232	23.113
4.527	99.300	3216.781	9081.405	4.850	21.634
5.394	99.300	3251.996	9146.743	3.784	22.511
6.339	99.300	3240.373	9120.213	4.019	22.836
7.223	99.300	3202.924	9259.677	3.947	22.751
8.098	99.400	3183.850	9488.143	4.384	23.799
8.964	99.600	3245.330	10354.464	4.046	22.846
9.829	100.000	3308.501	12361.715	4.411	22.989
10.704	100.800	3261.231	12933.314	4.972	24.475
11.584	102.100	3289.549	12409.413	4.492	24.055
12.465	104.100	3383.148	13005.670	4.702	23.502
13.331	106.700	3421.518	13266.398	4.211	23.521
14.212	109.900	3393.201	13055.075	4.557	23.714
15.119	113.500	3381.379	12582.400	3.800	23.529
16.051	117.800	3430.199	12167.905	4.626	23.831
17.020	121.600	3408.349	11833.637	3.972	23.749
17.907	125.300	3433.373	11771.992	4.356	25.119
18.807	129.300	3416.387	11795.020	4.449	24.070
19.671	132.300	3355.142	11639.928	4.568	23.260
20.536	135.800	3398.694	11517.875	4.142	24.161
21.400	139.100	3422.057	11431.509	5.061	23.184
22.292	142.500	3414.044	11382.015	5.007	23.469
23.149	145.800	3355.420	11272.583	5.258	23.770
24.036	149.000	3350.761	10992.853	4.509	24.837
24.933	152.100	3352.040	10850.166	4.671	23.967
25.828	155.200	3359.124	10794.241	4.902	25.186
26.740	158.700	3306.677	10766.373	4.899	24.070
27.639	161.700	3306.823	10686.885	4.475	23.756
28.516	164.600	3333.895	10557.228	5.057	24.517
29.416	167.500	3333.828	10508.728	5.879	26.334
30.282	170.400	3299.899	10561.635	6.698	27.917
31.187	173.200	3290.959	10466.812	7.678	31.120
32.053	176.000	3247.012	10408.708	7.954	37.753
32.967	178.800	3291.711	10310.281	8.044	51.995
33.856	181.600	3274.001	10249.019	7.201	79.007
34.723	184.300	3237.494	10291.342	8.570	128.853
35.588	187.000	3239.995	10374.205	10.746	220.407
36.471	189.800	3305.243	10420.477	14.603	368.711
37.367	192.500	3309.109	10504.053	21.656	586.267
38.235	195.200	3304.706	10731.666	29.212	808.482
39.136	197.900	3318.619	10831.367	33.461	937.642
40.036	200.900	3394.267	10768.004	31.297	642.434
40.945	203.500	3418.121	10362.488	18.121	373.617
41.812	206.200	3535.042	10437.900	17.683	360.058
42.672	208.900	3524.618	10427.928	17.759	376.204
43.539	211.200	3694.533	10353.878	18.559	404.608
44.404	213.900	3803.703	10445.899	18.899	436.171
45.296	216.500	3939.135	10452.522	20.359	461.701
46.199	219.500	3947.244	10519.528	21.603	511.964
47.067	222.200	4062.809	10522.967	22.785	544.584
47.951	224.800	4205.571	10460.151	22.493	543.202
48.828	227.500	4286.563	10458.813	22.266	525.828
49.719	230.100	4212.606	10478.479	20.659	465.948
50.623	232.700	4209.075	10409.740	17.840	389.916
51.521	235.400	4134.981	10237.479	15.479	307.358
52.401	238.000	4076.544	10136.263	14.261	253.327
53.276	240.700	4007.266	10199.130	12.704	211.706
54.142	243.300	3929.654	10203.715	11.741	184.461
55.004	246.000	3913.166	10105.848	10.281	163.719
55.870	248.600	3918.966	10083.521	10.104	147.439
56.736	250.900	3823.491	10163.825	9.367	135.843
57.604	253.600	3824.180	10151.037	9.372	125.262
58.472	256.200	3832.447	10153.470	8.983	121.239
59.338	258.800	3841.904	10182.356	8.773	113.903
60.203	261.500	3760.947	10195.971	9.417	109.144
61.125	264.100	3825.946	10244.981	8.181	109.774
61.999	266.800	3865.786	10184.712	8.157	107.442
62.870	269.400	3866.663	10191.386	9.237	104.482
63.736	272.000	3802.883	10227.647	8.243	103.085
64.625	274.600	3897.514	10221.177	8.457	103.584
65.491	277.300	3950.542	10154.043	8.724	102.518
66.357	279.900	4019.424	10159.520	8.331	100.878
67.223	282.600	3947.874	10225.405	7.788	102.821
68.128	285.200	4005.036	10221.432	8.191	99.154
69.040	287.900	4074.313	10140.593	7.481	106.072
69.929	290.500	4153.691	10168.843	8.422	104.409
70.796	293.200	4226.277	10272.607	8.394	100.590
71.664	295.800	4203.818	10269.868	8.776	101.376
72.574	298.400	4281.887	10215.662	8.122	106.619
73.443	301.100	4368.350	10180.140	7.934	103.945
74.312	303.700	4500.648	10205.829	9.075	104.336
75.181	306.300	4554.632	10263.691	8.315	105.725
76.081	309.000	4731.490	10285.101	8.434	105.137
76.945	311.600	4987.463	10295.061	8.262	105.733
77.844	314.200	5189.535	10270.607	8.235	109.142
78.710	316.900	5438.461	10361.774	8.107	107.574
79.575	319.500	5757.864	10365.162	8.777	108.291
80.470	322.200	6234.772	10328.953	7.863	105.873
81.336	324.800	6551.872	10308.740	8.597	105.018
82.203	327.400	6718.618	10399.564	8.996	100.378
83.102	330.100	6899.854	10389.196	9.315	95.765
84.009	332.700	7057.577	10314.751	8.994	93.229
84.886	335.300	7010.442	10310.905	10.187	86.162
85.763	338.000	6817.534	10410.224	9.881	83.541
86.652	340.600	6571.716	10445.733	10.640	76.993
87.537	343.300	6285.679	10335.970	11.596	73.860
88.438	346.200	5979.686	10319.375	11.239	68.933
89.345	348.900	5667.131	10359.367	10.661	68.084
90.211	351.500	5323.957	10464.507	11.835	64.785
91.076	354.100	5225.309	10502.627	12.539	65.913
91.945	356.500	5196.746	10465.093	13.589	62.606
92.845	359.400	5171.500	10421.789	13.320	62.197
93.713	362.100	5157.820	10527.654	15.123	63.455
94.621	364.700	5324.251	10496.475	16.892	62.570
95.489	367.400	5562.570	10436.843	17.165	61.280
96.358	370.000	5782.972	10372.333	16.882	59.735
97.223	372.300	5974.522	10367.684	18.317	58.451
98.090	374.900	6309.894	10456.508	18.309	61.240
98.958	377.600	6646.413	10382.102	17.938	60.176
99.819	380.200	6791.235	10455.833	19.427	59.676
100.683	382.800	6757.696	10583.274	17.951	58.813
101.581	385.500	6924.519	10578.791	19.872	57.384
102.447	388.100	7049.985	10640.397	20.795	58.668
103.314	390.800	7033.525	10850.739	19.781	57.687
104.180	393.400	6930.188	11037.328	21.208	56.611
105.071	396.100	6965.235	11275.500	21.371	57.686
105.941	398.700	7043.957	11597.961	22.429	57.001
106.809	401.300	6983.367	11991.238	21.553	56.933
107.695	403.900	6754.821	12433.014	19.889	56.532
108.562	406.600	6654.949	12980.872	20.548	57.068
109.468	409.200	6498.200	13463.877	18.885	54.972
110.334	411.900	6267.178	13955.274	17.527	55.071
111.199	414.500	5962.297	14554.397	16.811	56.342
112.064	416.800	5677.511	14859.881	16.522	54.136
112.930	419.400	5553.010	15137.523	14.515	57.111
113.796	422.100	5313.210	15614.324	13.195	53.295
114.661	424.700	5087.325	15935.410	12.271	54.834
115.545	427.300	4944.809	16045.975	12.476	53.941
116.410	430.000	4867.781	16223.853	10.579	53.171
117.278	432.600	4755.296	16456.254	10.850	52.153
118.144	435.300	4662.480	16583.122	10.915	52.119
119.012	437.900	4669.550	16614.237	10.015	55.016
119.878	440.200	4640.171	16714.690	10.077	53.027
120.786	443.200	4581.922	17017.664	8.519	52.339
121.651	445.800	4543.579	17180.895	8.750	52.670
122.548	448.500	4517.640	17158.606	8.496	53.425
123.414	451.100	4566.531	17221.460	8.613	52.021
124.282	453.400	4484.850	17469.299	8.279	53.248
125.160	456.000	4436.779	17511.800	8.256	51.177
126.026	458.700	4457.737	17506.719	8.105	51.710
126.893	461.300	4471.144	17530.001	7.606	52.058
127.802	464.000	4474.525	17735.096	7.795	49.839
128.667	466.600	4389.468	17768.707	7.584	51.993
129.533	469.200	4429.194	17676.648	8.094	52.582
130.392	471.900	4522.877	17684.341	7.520	52.342
131.256	474.500	4471.708	17815.858	7.539	53.918
132.121	477.200	4454.356	17808.598	8.259	51.668
132.988	479.800	4595.395	17634.822	7.882	53.355
133.846	482.100	4585.362	17424.989	9.248	51.340
134.711	484.700	4571.059	17301.152	8.286	51.307
135.571	487.400	4582.280	17030.274	8.330	50.679
136.436	490.000	4716.196	16657.401	7.659	52.535
137.303	492.700	4718.942	16295.495	7.319	51.539
138.171	495.300	4674.952	15940.479	8.457	51.898
139.038	497.900	4741.246	15348.960	7.186	50.925
139.923	500.600	4790.963	14876.043	7.983	49.761
140.791	503.200	4823.596	14567.324	8.557	51.545
141.656	505.500	4748.517	14005.201	7.384	51.533
142.523	508.200	4814.918	13396.577	8.648	50.160
143.384	510.800	4829.070	12921.559	8.479	51.407
144.246	513.500	4729.678	12532.460	8.534	49.101
145.150	516.100	4705.146	12123.009	8.406	51.174
146.035	518.700	4781.242	11767.687	8.252	49.435
146.901	521.400	4826.054	11441.711	7.876	50.746
147.768	524.000	4787.543	11361.089	8.139	49.222
148.634	526.600	4759.078	11192.611	8.277	50.346
149.522	529.300	4796.806	10975.901	8.368	51.005
150.388	531.900	4761.352	10851.618	8.711	51.695
151.257	534.600	4696.123	10867.068	8.894	51.292
152.121	537.200	4684.605	10753.446	8.452	50.617
153.040	539.800	4705.691	10653.146	9.374	52.428
153.911	542.500	4680.557	10560.450	8.705	52.191
154.778	545.100	4612.440	10558.094	7.760	50.292
155.645	547.700	4544.621	10586.433	7.355	51.735
156.511	550.000	4558.081	10468.888	8.896	51.579
157.409	553.000	4483.514	10481.765	9.149	51.658
158.278	555.600	4398.697	10529.679	8.908	53.293
159.143	557.900	4314.867	10462.163	9.122	50.288
160.010	560.600	4357.324	10400.659	8.798	51.991
160.875	563.200	4278.866	10396.863	8.897	51.782
161.743	565.900	4176.231	10461.475	8.679	51.447
162.643	568.500	4113.891	10363.392	9.019	49.778
163.509	571.100	4160.925	10347.828	9.015	50.394
164.377	573.800	4134.950	10306.167	9.048	53.569
165.242	576.400	4082.879	10369.595	8.811	50.817
166.108	579.000	4040.413	10354.833	8.060	52.673
166.975	581.700	4107.073	10273.409	9.104	54.270
167.841	584.000	4087.920	10231.863	8.311	52.255
168.709	586.600	4062.284	10269.537	7.772	51.585
169.574	589.300	4049.553	10295.914	8.799	50.993
170.442	591.900	4134.640	10260.889	9.950	49.534
171.308	594.600	4120.554	10336.633	8.562	53.997
172.176	597.200	4082.968	10294.590	8.510	52.879
173.043	599.800	4067.907	10247.427	8.649	53.546
173.911	602.500	4160.529	10237.199	9.207	53.450
174.777	605.100	4126.954	10289.928	8.241	49.164
175.643	607.400	4121.747	10340.543	9.769	51.961
176.509	610.100	4180.513	10244.701	8.517	53.452
177.376	612.700	4228.731	10251.872	9.155	51.751
178.243	615.300	4150.479	10304.486	8.308	52.530
179.109	618.000	4134.792	10250.394	9.548	54.043
179.975	620.600	4225.425	10200.786	9.699	52.242
180.839	623.200	4234.267	10230.627	9.207	52.664
181.704	625.900	4172.987	10353.916	9.116	52.587
182.571	628.200	4161.730	10341.969	9.588	53.146
183.440	630.800	4245.363	10291.979	9.309	54.558
184.306	633.400	4251.257	10393.170	8.601	53.115
185.171	636.100	4190.130	10330.264	8.765	53.597
186.035	638.700	4214.935	10311.848	9.327	53.613
186.939	641.400	4271.855	10363.074	8.642	54.424
187.855	644.000	4305.134	10368.143	8.614	53.466
188.720	646.600	4233.003	10433.213	9.561	53.841
189.587	649.300	4239.417	10429.914	9.773	54.844
190.498	651.900	4299.863	10411.434	9.753	56.625
191.366	654.500	4311.680	10410.823	9.170	53.108
192.270	657.500	4293.383	10462.227	9.005	53.121
193.141	659.800	4291.750	10516.408	8.746	54.121
194.005	662.500	4363.720	10412.109	9.175	54.100
194.894	665.100	4325.064	10415.408	8.266	57.341
195.758	667.700	4307.453	10511.135	8.991	55.522
196.624	670.400	4312.512	10525.845	9.372	55.429
197.536	673.000	4311.501	10439.989	8.353	57.174
198.403	675.700	4317.736	10434.168	8.672	55.096
199.269	678.300	4297.429	10543.829	9.642	55.200
200.134	680.900	4256.278	10602.774	9.538	57.958
201.002	683.600	4304.025	10499.315	10.374	58.748
201.873	686.300	4283.125	10555.521	9.710	56.185
202.739	688.900	4164.954	10590.648	8.868	55.532
203.605	691.600	4129.088	10645.695	8.718	57.143
204.466	693.800	4162.769	10569.735	9.400	56.539
205.333	696.400	4093.553	10537.576	8.908	58.135
206.200	699.100	3988.993	10568.538	9.291	57.840
207.065	701.700	3900.618	10515.376	9.646	60.078
207.931	704.400	3893.810	10514.153	9.535	59.899
208.798	707.000	3825.644	10581.848	9.290	57.439
209.665	709.600	3721.194	10566.882	9.854	59.422
210.533	712.200	3657.452	10493.380	10.080	59.103
211.423	714.900	3609.145	10550.898	10.068	60.055
212.288	717.500	3539.281	10600.812	9.912	61.090
213.198	720.100	3468.618	10560.017	8.838	60.921
214.067	722.800	3399.745	10573.811	10.347	60.630
214.930	725.400	3401.463	10523.094	9.889	60.410
215.795	727.700	3357.621	10610.619	10.091	63.231
216.662	730.300	3284.640	10599.870	10.104	62.317
217.530	733.000	3247.841	10537.971	9.556	61.895
218.397	735.600	3292.424	10552.210	9.861	62.712
219.265	738.300	3235.704	10625.521	9.351	64.183
220.131	740.900	3218.136	10608.403	10.387	64.617
220.998	743.500	3263.147	10479.396	9.866	64.481
221.865	746.200	3265.001	10581.083	9.381	65.320
222.730	748.500	3220.764	10687.573	9.349	64.793
223.593	751.100	3203.833	10731.195	9.725	66.538
224.462	753.800	3243.512	10635.557	9.204	66.012
225.327	756.400	3247.961	10657.298	10.124	64.412
226.194	759.000	3182.427	10731.335	9.520	65.343
227.060	761.700	3199.356	10751.344	9.946	66.492
227.927	764.300	3207.120	10756.974	9.536	67.462
228.794	766.900	3225.209	10844.830	9.885	65.915
229.661	769.200	3163.464	10848.600	9.911	66.656
230.528	771.900	3225.764	10861.081	9.727	69.322
231.394	774.500	3231.084	10823.967	9.682	67.236
232.259	777.200	3192.446	10931.629	9.743	65.674
233.127	779.800	3176.400	10953.459	10.165	69.703
233.993	782.400	3233.021	10916.549	9.284	69.590
234.860	785.100	3236.880	10993.031	9.712	70.306
235.726	787.700	3203.158	11084.351	10.149	69.205
236.593	790.000	3207.848	11115.288	10.527	73.866
237.461	792.600	3236.929	11087.408	10.809	70.575
238.320	795.300	3244.357	11190.866	10.450	71.813
239.188	797.900	3175.174	11211.525	9.815	71.772
240.053	800.500	3180.850	11206.991	10.029	71.213
